,time,P3,C3,F3,Fz,F4,C4,P4,Cz,CM,A1,Fp1,Fp2,T3,T5,O1,O2,X3,X2,F7,F8,X1,A2,T6,T4,TRG
0,0.0,5557.2001953125,6580.80712890625,9655.5263671875,2641.075927734375,27.28166961669922,2894.73486328125,-9508.244140625,7578.1796875,7290.67724609375,-9818.1005859375,-1746.7701416015625,-3917.453369140625,-1654.4970703125,2604.38671875,7501.20849609375,6246.84716796875,-5.699999809265137,-17.399999618530273,2633.298095703125,-4960.77685546875,-17.399999618530273,-8385.2255859375,6155.11328125,4527.21240234375,0.0
0,0.00341796875,2962.800048828125,3763.633544921875,-2007.5936279296875,9819.599609375,9823.5,7201.74072265625,-9808.501953125,2150.997314453125,-6701.53173828125,3426.50732421875,9814.2001953125,5684.25439453125,-6344.73779296875,-6522.21240234375,-4398.2314453125,-2333.742431640625,-5.699999809265137,-17.399999618530273,9816.2998046875,9662.779296875,-17.399999618530273,7010.603515625,-8326.7314453125,-6747.52734375,0.0
0,0.006591796875,-1215.300048828125,-1367.1754150390625,-9828.900390625,6504.24560546875,8461.2158203125,1586.5546875,-9809.400390625,-3619.5185546875,-9573.6171875,9817.7998046875,8076.416015625,6362.5234375,-305.9439697265625,-3380.1552734375,-6329.12646484375,-4592.37744140625,-5.699999809265137,-17.399999618530273,5326.51220703125,9825.2998046875,-17.100000381469727,9836.69921875,-8921.7119140625,-5712.71875,0.0
0,0.010009765625,-1202.0999755859375,-1804.99560546875,-1466.4761962890625,-3850.582763671875,-4582.12158203125,-5696.1787109375,-9599.548828125,-3051.386962890625,-957.3616943359375,5963.12939453125,137.17776489257812,2806.11279296875,8703.806640625,5672.37548828125,1455.2884521484375,-217.51153564453125,-5.699999809265137,-17.399999618530273,-8613.791015625,-2040.8031005859375,-17.100000381469727,-583.2913818359375,1772.6702880859375,2979.79345703125,0.0
0,0.013427734375,2246.699951171875,2146.189453125,9290.181640625,-8678.12109375,-9823.80078125,-5023.0400390625,-9809.400390625,3645.260986328125,10162.7626953125,-9285.3671875,-9426.62890625,-5188.45751953125,7524.72216796875,9410.27734375,9819.900390625,7300.4560546875,-6.0,-17.399999618530273,-9816.6005859375,-9825.6005859375,-17.399999618530273,-9837.0,9806.7001953125,9816.900390625,0.0
0,0.0166015625,4505.7001953125,5417.38720703125,9595.8349609375,1331.476318359375,-793.2670288085938,3004.52490234375,-9528.3017578125,6833.14306640625,6112.3857421875,-9818.1005859375,-2661.787841796875,-4222.07421875,-2828.781982421875,1414.495361328125,6454.69580078125,5518.3037109375,-5.400000095367432,-17.100000381469727,2110.2333984375,-5022.24658203125,-17.399999618530273,-8384.6259765625,5700.79736328125,3786.608642578125,0.0
0,0.02001953125,2006.4000244140625,2658.1298828125,-3109.62548828125,9819.599609375,9823.5,7239.2373046875,-9809.400390625,1437.0914306640625,-7732.53662109375,3408.230224609375,9814.2001953125,5308.5048828125,-7243.0732421875,-7407.7333984375,-5406.98388671875,-3061.384765625,-6.0,-17.399999618530273,9816.2998046875,9606.40625,-17.700000762939453,7010.904296875,-8437.4677734375,-7338.033203125,0.0
0,0.023193359375,-2335.5,-2603.81494140625,-9828.900390625,5497.322265625,8069.97802734375,1361.875244140625,-9510.9384765625,-4529.18701171875,-10457.3359375,9817.7998046875,7514.5263671875,5641.9375,-1323.0577392578125,-4488.4814453125,-7534.17431640625,-5420.66357421875,-5.400000095367432,-17.399999618530273,4782.7763671875,9825.2998046875,-17.700000762939453,9836.69921875,-9205.734375,-6493.16943359375,0.0
0,0.026611328125,-1862.4000244140625,-2569.3056640625,-2399.6337890625,-4608.7724609375,-5224.8896484375,-5787.0703125,-9809.400390625,-3624.3076171875,-1546.50732421875,5975.7138671875,-464.5473937988281,2618.23828125,8092.21826171875,4975.77294921875,706.3662719726562,-661.2470703125,-6.0,-17.100000381469727,-8872.626953125,-2192.22900390625,-17.399999618530273,-561.97705078125,1251.3143310546875,2525.0048828125,0.0
0,0.030029296875,1473.5999755859375,1248.3427734375,9061.9169921875,-9435.111328125,-9823.80078125,-5091.73388671875,-9809.400390625,3029.236328125,9279.0439453125,-9276.9775390625,-9675.525390625,-5571.40966796875,6815.65185546875,8990.7568359375,9582.2470703125,6729.03759765625,-5.699999809265137,-17.399999618530273,-9816.6005859375,-9825.6005859375,-17.399999618530273,-9837.0,9806.7001953125,9747.9921875,0.0
0,0.033203125,3665.39990234375,4400.10791015625,9032.521484375,436.93280029296875,-1589.2322998046875,2915.133056640625,-6724.205078125,6183.89306640625,5007.73779296875,-9818.1005859375,-3240.4501953125,-4572.61328125,-3773.60888671875,254.2913055419922,5345.248046875,4917.142578125,-5.400000095367432,-17.399999618530273,1352.2989501953125,-5066.9248046875,-17.399999618530273,-8380.72265625,5133.3515625,2959.720458984375,0.0
0,0.03662109375,-1858.5,-1646.2520751953125,-6739.671875,7413.77294921875,9823.5,6569.0986328125,9809.1005859375,-1859.1490478515625,-13182.134765625,3382.46240234375,7306.36328125,2999.689697265625,-9828.6005859375,-9826.2001953125,-8529.740234375,-6133.5849609375,-6.0,-17.399999618530273,9816.2998046875,9558.4296875,-17.100000381469727,7007.0009765625,-9252.4228515625,-9287.8115234375,0.0
0,0.0400390625,-5348.39990234375,-5929.02783203125,-9828.900390625,2433.69775390625,6522.41796875,870.520263671875,9052.6201171875,-7133.67236328125,-15244.1435546875,9817.7998046875,5055.2099609375,3846.025146484375,-4746.3310546875,-7350.45849609375,-9702.123046875,-7934.96533203125,-6.0,-17.700000762939453,2601.2431640625,9825.2998046875,-16.799999237060547,9836.69921875,-9609.4716796875,-8398.9072265625,0.0
0,0.043212890625,-4830.0,-5897.81982421875,-6206.65283203125,-7824.333984375,-7763.8837890625,-6378.6162109375,9809.1005859375,-6209.03662109375,-6406.958984375,5923.87841796875,-3430.342529296875,597.5369262695312,4792.52197265625,1844.8114013671875,-2833.556884765625,-3180.355224609375,-5.699999809265137,-17.700000762939453,-9725.228515625,-2818.3232421875,-17.399999618530273,-583.591552734375,-908.9312133789062,-163.58006286621094,0.0
0,0.046630859375,-693.0,-1206.63134765625,8236.1435546875,-9819.900390625,-9823.80078125,-5397.10595703125,9438.79296875,1161.706298828125,5228.66796875,-9296.1533203125,-9814.5,-6919.84423828125,4133.2431640625,6468.2353515625,7296.521484375,4834.82470703125,-6.0,-17.399999618530273,-9816.6005859375,-9825.6005859375,-17.100000381469727,-9837.0,9806.7001953125,8073.54443359375,0.0
0,0.050048828125,1965.9000244140625,2505.68798828125,8243.9423828125,-1802.5726318359375,-3145.786376953125,2610.660888671875,9809.1005859375,4606.4150390625,1620.1505126953125,-9818.1005859375,-4749.705078125,-5704.3623046875,-5725.951171875,-1504.1571044921875,3402.365966796875,3421.6005859375,-6.0,-17.700000762939453,-113.8399658203125,-5332.294921875,-17.100000381469727,-8373.5185546875,4275.0,1490.7955322265625,0.0
0,0.05322265625,-539.7000122070312,-162.94473266601562,-5900.99951171875,8961.318359375,9823.5,6550.80029296875,9676.185546875,-804.0048217773438,-11782.9130859375,3399.241455078125,8086.89892578125,3337.323486328125,-9828.6005859375,-9506.5361328125,-7749.65087890625,-5188.7314453125,-6.0,-17.399999618530273,9816.2998046875,9544.9365234375,-17.399999618530273,7023.2119140625,-9014.19140625,-8872.5703125,0.0
0,0.056640625,-4317.0,-4873.0380859375,-9828.900390625,3432.22998046875,7045.2666015625,816.5252075195312,9809.1005859375,-6281.77392578125,-14213.138671875,9817.7998046875,5650.9453125,4168.953125,-3720.818603515625,-6521.0126953125,-9392.5439453125,-7210.62744140625,-6.0,-17.100000381469727,2589.260009765625,9825.2998046875,-17.399999618530273,9836.69921875,-9554.103515625,-7891.68896484375,0.0
0,0.06005859375,-3786.0,-4617.66796875,-5025.73291015625,-6609.4326171875,-7015.287109375,-6255.3271484375,9809.1005859375,-5296.37451171875,-5155.0244140625,5896.61279296875,-2583.614501953125,1063.021484375,5842.63037109375,2947.440185546875,-1479.8629150390625,-2383.01318359375,-5.400000095367432,-17.100000381469727,-9625.46875,-2600.929443359375,-17.100000381469727,-560.4760131835938,-163.11080932617188,865.5362548828125,0.0
0,0.063232421875,103.19999694824219,-245.16732788085938,8598.4873046875,-9819.900390625,-9823.80078125,-5407.90478515625,9629.185546875,1794.4932861328125,5817.8134765625,-9313.83203125,-9814.5,-6625.7275390625,5052.57470703125,7372.3486328125,8081.40576171875,5414.05419921875,-6.0,-17.399999618530273,-9816.6005859375,-9825.6005859375,-17.700000762939453,-9837.0,9806.7001953125,8783.2900390625,0.0
0,0.066650390625,2772.60009765625,3438.343994140625,8826.7529296875,-880.1588745117188,-2562.378662109375,2711.751708984375,9809.1005859375,5243.09326171875,2503.868896484375,-9818.1005859375,-4277.3701171875,-5196.86083984375,-4867.20849609375,-578.7526245117188,4245.39013671875,4012.547119140625,-5.099999904632568,-17.700000762939453,-118.63323211669922,-5216.25146484375,-17.399999618530273,-8363.01171875,4664.66943359375,2213.423828125,0.0
0,0.070068359375,336.8999938964844,808.4219970703125,-5000.23681640625,9819.599609375,9823.5,6765.2802734375,9028.3720703125,-41.00843811035156,-10972.837890625,3400.43994140625,9003.4140625,4171.9541015625,-9178.3193359375,-8951.4736328125,-6972.857421875,-4538.90087890625,-5.699999809265137,-16.799999237060547,9816.2998046875,9578.5205078125,-17.399999618530273,7036.72119140625,-8769.6748046875,-8247.6103515625,0.0
0,0.0732421875,-3846.60009765625,-4349.39453125,-9828.900390625,3884.446533203125,7112.421875,972.2109985351562,9809.1005859375,-5939.03955078125,-13918.56640625,9817.7998046875,6003.47412109375,4722.07275390625,-2977.8544921875,-6084.099609375,-9383.25390625,-6852.21435546875,-6.300000190734863,-17.399999618530273,2501.783203125,9825.2998046875,-17.700000762939453,9836.69921875,-9649.2763671875,-7780.2392578125,0.0
0,0.07666015625,-1505.699951171875,-2205.90576171875,-2192.96533203125,-4176.03466796875,-5347.50732421875,-6053.74560546875,-2721.773193359375,-3465.36279296875,-1693.7938232421875,5927.77392578125,-463.9483947753906,2339.427734375,7889.75537109375,5286.740234375,1359.3880615234375,-611.0752563476562,-5.699999809265137,-17.399999618530273,-9541.8857421875,-2340.056884765625,-17.399999618530273,-539.1617431640625,1315.0621337890625,3051.097412109375,0.0
0,0.080078125,3561.0,3554.776123046875,9828.599609375,-7239.65869140625,-9823.80078125,-5081.83447265625,-9809.400390625,4692.62255859375,11635.626953125,-9299.150390625,-8625.7255859375,-4594.2216796875,8529.537109375,9825.8994140625,9819.900390625,8248.6142578125,-5.699999809265137,-17.700000762939453,-9816.6005859375,-9825.6005859375,-16.799999237060547,-9837.0,9806.7001953125,9816.900390625,0.0
0,0.083251953125,5675.7001953125,6576.3056640625,9659.1259765625,2715.995849609375,164.28961181640625,3123.614013671875,-9510.6396484375,7841.2919921875,7217.0341796875,-9818.1005859375,-1598.809814453125,-3290.804931640625,-1267.2679443359375,2901.559814453125,7604.90087890625,6418.09228515625,-5.400000095367432,-17.700000762939453,1176.4461669921875,-4906.5029296875,-17.700000762939453,-8354.3056640625,6369.10302734375,5255.53369140625,0.0
0,0.086669921875,2897.10009765625,3512.164306640625,-2235.858642578125,9819.599609375,9823.5,7275.833984375,-9806.7060546875,2209.067626953125,-6775.17529296875,3463.361083984375,9814.2001953125,5861.9248046875,-6163.5712890625,-6383.67138671875,-4254.6806640625,-2350.26611328125,-5.699999809265137,-17.700000762939453,9816.2998046875,9680.7705078125,-17.399999618530273,7053.232421875,-8230.6611328125,-6202.56005859375,0.0
0,0.090087890625,-1126.800048828125,-1424.791259765625,-9828.900390625,6586.357421875,8558.0498046875,1734.1412353515625,-9809.400390625,-3442.912841796875,-9352.6875,9817.7998046875,8233.361328125,6713.66259765625,85.48434448242188,-3071.886962890625,-6126.83642578125,-4432.548828125,-5.699999809265137,-17.399999618530273,4104.82958984375,9825.2998046875,-17.700000762939453,9836.69921875,-8680.189453125,-5046.115234375,0.0
0,0.09326171875,-1059.300048828125,-1735.076416015625,-1509.36962890625,-3759.480224609375,-4517.96484375,-5519.79443359375,-9598.3525390625,-2887.353271484375,-736.4320678710938,5980.20849609375,304.3070068359375,3246.6875,8875.6748046875,5903.87646484375,1755.5765380859375,53.17616271972656,-5.699999809265137,-17.399999618530273,-9264.1767578125,-1970.03759765625,-17.399999618530273,-474.3182373046875,2144.6826171875,3610.7451171875,0.0
0,0.0966796875,2391.300048828125,2154.29150390625,9310.279296875,-8566.939453125,-9823.80078125,-4841.2568359375,-9809.400390625,3805.4033203125,10089.119140625,-9280.2744140625,-9292.146484375,-4833.4169921875,7721.48583984375,9562.912109375,9819.900390625,7478.611328125,-6.0,-17.399999618530273,-9816.6005859375,-9825.6005859375,-17.399999618530273,-9837.0,9806.7001953125,9816.900390625,0.0
0,0.10009765625,4654.5,5456.39794921875,9546.3427734375,1420.481201171875,-678.7440185546875,3188.10791015625,-9528.0029296875,6983.1083984375,6186.029296875,-9818.1005859375,-2449.13232421875,-3718.474609375,-2415.45751953125,1673.584716796875,6612.93115234375,5744.2275390625,-6.0,-17.399999618530273,391.2499694824219,-4916.998046875,-17.700000762939453,-8329.388671875,6040.48681640625,4510.73486328125,0.0
0,0.103271484375,2019.5999755859375,2541.397705078125,-3301.59619140625,9819.599609375,9823.5,7285.73291015625,-9809.400390625,1443.3773193359375,-7658.8935546875,3460.66455078125,9814.2001953125,5544.39892578125,-7091.60107421875,-7328.267578125,-5311.38330078125,-2955.032470703125,-5.699999809265137,-17.399999618530273,9816.2998046875,9642.689453125,-17.399999618530273,7076.9482421875,-8322.2421875,-6809.54443359375,0.0
0,0.106689453125,-2100.0,-2492.184326171875,-9828.900390625,5570.44384765625,8141.63037109375,1532.859619140625,-9513.6328125,-4324.74365234375,-10383.69140625,9817.7998046875,7691.5390625,6131.1318359375,-949.6260986328125,-4158.92236328125,-7230.88916015625,-5163.19482421875,-5.699999809265137,-17.100000381469727,3373.857177734375,9825.2998046875,-17.100000381469727,9836.69921875,-9008.5048828125,-5832.857421875,0.0
0,0.10986328125,-1777.199951171875,-2498.7861328125,-2407.732666015625,-4598.5830078125,-5166.72900390625,-5687.1796875,-9809.400390625,-3428.84423828125,-1546.50732421875,5947.8486328125,-265.66961669921875,2901.550537109375,8342.373046875,5155.99658203125,956.3067016601562,-499.916015625,-6.0,-17.100000381469727,-9402.880859375,-2140.0546875,-17.399999618530273,-452.7037353515625,1684.9794921875,3025.33203125,0.0
0,0.11328125,1529.4000244140625,1354.2718505859375,9059.517578125,-9403.9443359375,-9823.80078125,-4925.548828125,-9809.400390625,3233.380859375,9352.6875,-9292.8583984375,-9513.1875,-5146.14111328125,7215.1787109375,9197.0693359375,9706.6181640625,6945.9482421875,-5.099999904632568,-17.100000381469727,-9816.6005859375,-9825.6005859375,-17.399999618530273,-9837.0,9806.7001953125,9816.900390625,0.0
0,0.11669921875,3806.699951171875,4462.52490234375,9000.126953125,293.68597412109375,-1269.0474853515625,3041.121337890625,-6674.810546875,6338.94677734375,5007.73779296875,-9818.1005859375,-2640.522216796875,-3522.4970703125,-3340.188232421875,483.093505859375,5578.70556640625,5056.5419921875,-5.400000095367432,-17.399999618530273,560.5120239257812,-4949.3818359375,-17.700000762939453,-8320.6826171875,5429.64453125,3642.202880859375,0.0
0,0.119873046875,-1733.4000244140625,-1576.3328857421875,-6797.8623046875,7426.35888671875,9823.5,6734.38330078125,9809.1005859375,-1594.240478515625,-13255.77734375,3445.083984375,7429.4638671875,3220.277099609375,-9828.6005859375,-9826.2001953125,-8483.2880859375,-5932.8974609375,-6.0,-17.399999618530273,9816.2998046875,9601.609375,-17.399999618530273,7092.85888671875,-9157.8486328125,-9187.1474609375,0.0
0,0.123291015625,-5172.60009765625,-5908.32275390625,-9828.900390625,2596.1240234375,6501.43212890625,1165.9931640625,9049.0283203125,-6828.95263671875,-15317.787109375,9817.7998046875,4858.4287109375,3840.322998046875,-4297.61279296875,-7138.74853515625,-9673.3525390625,-7676.8955078125,-6.0,-17.700000762939453,1099.454345703125,9825.2998046875,-17.700000762939453,9836.69921875,-9506.2177734375,-8097.51220703125,0.0
0,0.126708984375,-4870.2001953125,-5874.71337890625,-6248.9462890625,-7753.609375,-7698.82763671875,-6252.02783203125,9809.1005859375,-6135.7001953125,-6333.31591796875,5951.14453125,-3555.539794921875,1048.6158447265625,4976.388671875,1932.07421875,-2810.18115234375,-3085.11865234375,-5.699999809265137,-17.399999618530273,-9816.6005859375,-2774.244873046875,-17.100000381469727,-409.1745300292969,-572.8331909179688,150.69737243652344,0.0
0,0.1298828125,-693.0,-1174.222412109375,8213.646484375,-9819.900390625,-9823.80078125,-5285.51611328125,9440.2900390625,1243.4237060546875,5081.38134765625,-9294.6552734375,-9814.5,-7065.1015625,4264.9189453125,6600.77880859375,7476.93408203125,5122.63671875,-5.699999809265137,-16.799999237060547,-9816.6005859375,-9825.6005859375,-16.799999237060547,-9837.0,9806.7001953125,8353.068359375,0.0
0,0.13330078125,2005.199951171875,2457.074462890625,8237.3427734375,-1775.3017578125,-3060.044189453125,2712.651611328125,9809.1005859375,4702.201171875,1472.8641357421875,-9818.1005859375,-4766.17822265625,-5174.65234375,-5375.015625,-1285.8504638671875,3546.81591796875,3531.55810546875,-5.400000095367432,-17.399999618530273,-1286.092041015625,-5283.119140625,-17.100000381469727,-8316.7802734375,4537.47314453125,1874.5794677734375,0.0
0,0.13671875,-587.0999755859375,-220.26048278808594,-5910.29833984375,8930.1513671875,9823.5,6630.29296875,9678.2802734375,-721.6886596679688,-11709.2705078125,3343.81103515625,8040.1748046875,3893.744140625,-9828.6005859375,-9442.6640625,-7731.96875,-5109.71826171875,-6.0,-17.399999618530273,9816.2998046875,9564.7275390625,-17.399999618530273,7090.15673828125,-8922.01171875,-8788.982421875,0.0
0,0.139892578125,-4282.5,-4865.23583984375,-9828.900390625,3460.100341796875,7025.47998046875,960.8120727539062,9809.1005859375,-6222.50634765625,-14286.7822265625,9817.7998046875,5600.02783203125,4210.9697265625,-3605.6396484375,-6461.0380859375,-9251.390625,-6943.544921875,-5.400000095367432,-17.100000381469727,442.7775573730469,9825.2998046875,-17.100000381469727,9836.69921875,-9488.859375,-7682.2705078125,0.0
0,0.143310546875,-3632.10009765625,-4606.564453125,-4930.6474609375,-6550.09619140625,-6958.025390625,-6136.5380859375,9809.1005859375,-5157.185546875,-5228.66796875,5908.29833984375,-2633.63330078125,1329.827392578125,6249.95556640625,3144.4560546875,-1314.734375,-2127.346923828125,-6.300000190734863,-17.700000762939453,-9816.6005859375,-2580.83935546875,-17.399999618530273,-409.1745300292969,247.50942993164062,1191.4979248046875,0.0
0,0.146728515625,84.5999984741211,-365.8004455566406,8579.890625,-9819.900390625,-9823.80078125,-5362.60888671875,9627.98828125,1845.9783935546875,6038.7431640625,-9303.3447265625,-9814.5,-6445.05615234375,5195.6484375,7465.9091796875,8262.1181640625,5640.27880859375,-5.400000095367432,-17.399999618530273,-9816.6005859375,-9825.6005859375,-17.700000762939453,-9837.0,9806.7001953125,9004.09375,0.0
0,0.14990234375,2759.699951171875,3375.927001953125,8783.859375,-745.3030395507812,-2506.915771484375,2797.5439453125,9809.1005859375,5369.7109375,2503.868896484375,-9818.1005859375,-4262.39453125,-5369.42919921875,-4611.0556640625,-511.5813293457031,4459.9677734375,4250.48779296875,-5.400000095367432,-17.399999618530273,-1467.9364013671875,-5215.35205078125,-17.100000381469727,-8314.6787109375,5023.21435546875,2598.40625,0.0
0,0.1533203125,318.0,701.2925415039062,-5137.61572265625,9819.599609375,9823.5,6794.97802734375,9027.4736328125,-17.660568237304688,-11046.4814453125,3322.53759765625,8877.6181640625,4251.48583984375,-9028.3466796875,-8967.3671875,-6949.18212890625,-4397.69873046875,-5.699999809265137,-17.700000762939453,9816.2998046875,9577.9208984375,-17.399999618530273,7087.75537109375,-8672.107421875,-8106.20068359375,0.0
0,0.15673828125,-3808.800048828125,-4316.0849609375,-9828.900390625,3799.33740234375,7111.22265625,1152.79443359375,9809.1005859375,-5738.4873046875,-13918.56640625,9817.7998046875,5837.54296875,4744.28125,-2766.9931640625,-5972.2470703125,-9208.53515625,-6552.68505859375,-5.699999809265137,-18.0,1325.3367919921875,9825.2998046875,-17.399999618530273,9836.69921875,-9505.0205078125,-7514.1962890625,0.0
0,0.159912109375,-1512.5999755859375,-2206.805908203125,-2307.248046875,-4223.08447265625,-5300.73876953125,-5980.552734375,-2742.129638671875,-3428.544921875,-1693.7938232421875,5889.7216796875,-781.4340209960938,2263.197509765625,7943.74560546875,5425.5810546875,1612.025634765625,-318.15570068359375,-5.699999809265137,-17.399999618530273,-9816.6005859375,-2339.7568359375,-17.399999618530273,-429.5882263183594,1737.0552978515625,3347.099609375,0.0
0,0.163330078125,3568.199951171875,3542.47265625,9828.599609375,-7246.55126953125,-9823.80078125,-4918.94970703125,-9809.400390625,4865.03759765625,11635.626953125,-9309.63671875,-8836.5849609375,-4361.029296875,8624.62109375,9825.8994140625,9819.900390625,8565.267578125,-5.400000095367432,-17.100000381469727,-9816.6005859375,-9825.6005859375,-16.799999237060547,-9837.0,9806.7001953125,9816.900390625,0.0
0,0.166748046875,5520.60009765625,6378.25146484375,9598.2353515625,2552.370849609375,22.784690856933594,3165.610107421875,-9513.333984375,7706.2939453125,7143.39111328125,-9818.1005859375,-2049.879150390625,-3447.46728515625,-1173.68505859375,2904.258544921875,7648.35546875,6556.89111328125,-5.400000095367432,-17.100000381469727,-565.0057373046875,-4905.9033203125,-17.700000762939453,-8305.9736328125,6570.22314453125,5456.86279296875,0.0
0,0.169921875,2905.5,3595.88720703125,-2255.65576171875,9819.599609375,9823.5,7412.92138671875,-9804.91015625,2259.355224609375,-6996.1044921875,3291.076904296875,9814.2001953125,6084.61328125,-5944.01171875,-6206.14697265625,-4090.451416015625,-2055.844482421875,-6.0,-17.700000762939453,9816.2998046875,9680.7705078125,-17.399999618530273,7102.1650390625,-8047.19873046875,-5811.5859375,0.0
0,0.17333984375,-1290.9000244140625,-1597.638671875,-9828.900390625,6360.3994140625,8469.9091796875,1760.8387451171875,-9809.400390625,-3536.30419921875,-9573.6171875,9817.7998046875,7963.19921875,6921.04443359375,264.85150146484375,-3032.004150390625,-6049.216796875,-4291.3466796875,-5.699999809265137,-17.399999618530273,1955.3511962890625,9825.2998046875,-17.399999618530273,9836.69921875,-8561.0732421875,-4719.55419921875,0.0
0,0.1767578125,-1199.699951171875,-2071.46875,-1790.7266845703125,-4173.93701171875,-4626.79150390625,-5465.19970703125,-9597.154296875,-2952.607421875,-957.3616943359375,5750.6953125,-23.961181640625,3800.406982421875,8986.654296875,5962.3515625,1781.94921875,229.8291778564453,-6.0,-17.100000381469727,-9816.6005859375,-1970.6373291015625,-17.399999618530273,-427.48681640625,2571.763427734375,4092.796630859375,0.0
0,0.179931640625,2195.10009765625,1833.8035888671875,9275.484375,-8952.6279296875,-9823.80078125,-4736.56640625,-9809.400390625,3747.931884765625,10089.119140625,-9377.052734375,-9413.7490234375,-4337.3203125,7822.8671875,9585.7021484375,9819.900390625,7681.40185546875,-5.699999809265137,-17.100000381469727,-9816.6005859375,-9825.6005859375,-17.399999618530273,-9837.0,9806.7001953125,9816.900390625,0.0
0,0.183349609375,4599.89990234375,5194.12646484375,9498.3505859375,1234.9794921875,-606.7923583984375,3358.492431640625,-9527.703125,7065.72412109375,5965.099609375,-9818.1005859375,-2766.917236328125,-3071.71826171875,-2167.10302734375,1929.97509765625,6804.4326171875,6077.705078125,-5.400000095367432,-17.700000762939453,-2573.68212890625,-4919.396484375,-17.399999618530273,-8296.3662109375,6416.689453125,5076.673828125,0.0
0,0.1865234375,1942.800048828125,2352.345947265625,-3499.86572265625,9819.599609375,9823.5,7507.1123046875,-9809.400390625,1425.716796875,-7732.53662109375,3148.45556640625,9814.2001953125,5925.55029296875,-6880.73974609375,-7152.54296875,-5084.81884765625,-2760.353515625,-5.400000095367432,-17.399999618530273,9816.2998046875,9643.2890625,-17.399999618530273,7115.974609375,-8097.1796875,-6332.28564453125,0.0
0,0.18994140625,-2210.39990234375,-2809.0712890625,-9828.900390625,5403.82177734375,8109.85107421875,1675.046630859375,-9516.626953125,-4434.0,-10457.3359375,9817.7998046875,7392.32373046875,6399.73828125,-713.5693359375,-4042.572021484375,-7120.9033203125,-4974.224609375,-6.0,-17.700000762939453,163.86964416503906,9825.2998046875,-17.100000381469727,9836.69921875,-8769.3759765625,-5347.2099609375,0.0
0,0.193359375,-1843.5,-2891.2939453125,-2785.074951171875,-4853.60986328125,-5264.462890625,-5458.2998046875,-9809.400390625,-3553.96484375,-1693.7938232421875,5720.1337890625,-793.4146118164062,3460.67236328125,8519.939453125,5391.6953125,1138.5174560546875,-186.86764526367188,-6.0,-17.399999618530273,-9816.6005859375,-2127.760498046875,-17.399999618530273,-427.1866149902344,2354.482177734375,3786.608642578125,0.0
0,0.196533203125,1566.0,968.666015625,9005.5263671875,-9535.8037109375,-9823.80078125,-4788.16162109375,-9809.400390625,3091.796630859375,9205.400390625,-9378.55078125,-9722.548828125,-4752.6845703125,7444.63671875,9444.462890625,9778.244140625,7225.64892578125,-5.699999809265137,-17.700000762939453,-9816.6005859375,-9825.6005859375,-16.799999237060547,-9837.0,9806.7001953125,9816.900390625,0.0
0,0.199951171875,3736.199951171875,4176.24658203125,8891.8427734375,105.7868881225586,-1649.1920166015625,3158.710693359375,-6625.41650390625,6207.5400390625,5007.73779296875,-9818.1005859375,-3490.545166015625,-3941.462890625,-3285.29833984375,669.0140380859375,5689.59033203125,5362.6806640625,-5.699999809265137,-17.100000381469727,-3210.885986328125,-5014.150390625,-17.100000381469727,-8308.07421875,5719.9521484375,4193.16162109375,0.0
0,0.203369140625,-1750.5,-1829.3023681640625,-6982.634765625,7213.287109375,9823.5,6777.87939453125,9809.1005859375,-1730.4364013671875,-13403.0634765625,3199.09228515625,7052.0751953125,3391.9453125,-9828.6005859375,-9826.2001953125,-8476.3955078125,-5782.08154296875,-5.699999809265137,-17.100000381469727,9816.2998046875,9574.6220703125,-16.799999237060547,7104.8671875,-9015.6884765625,-9075.3974609375,0.0
0,0.20654296875,-5346.89990234375,-6181.9970703125,-9828.900390625,2218.827392578125,6434.876953125,1058.0030517578125,9044.5380859375,-7075.6015625,-15244.1435546875,9817.7998046875,4785.64697265625,4270.3935546875,-4419.0908203125,-7089.86962890625,-9618.509765625,-7595.779296875,-6.0,-17.700000762939453,-1913.41015625,9825.2998046875,-17.700000762939453,9836.69921875,-9443.9658203125,-7792.5224609375,0.0
0,0.2099609375,-4859.7001953125,-6182.89794921875,-6522.20458984375,-8031.412109375,-7787.26806640625,-6130.23828125,9809.1005859375,-6170.12353515625,-6406.958984375,5661.70703125,-3950.000732421875,1302.2164306640625,5261.03662109375,2214.553466796875,-2544.956787109375,-2765.160400390625,-5.699999809265137,-17.100000381469727,-9816.6005859375,-2777.843017578125,-17.100000381469727,-407.3733215332031,162.21295166015625,968.2980346679688,0.0
0,0.21337890625,-723.0,-1439.79541015625,8009.3779296875,-9819.900390625,-9823.80078125,-5250.11962890625,9441.787109375,1144.045654296875,5228.66796875,-9409.7119140625,-9814.5,-6165.6455078125,4565.1640625,6879.958984375,7583.0234375,5235.89892578125,-6.300000190734863,-17.399999618530273,-9816.6005859375,-9825.6005859375,-17.399999618530273,-9837.0,9806.7001953125,9096.6689453125,0.0
0,0.216552734375,1956.5999755859375,2258.72021484375,8091.56494140625,-2043.21533203125,-3112.509033203125,2718.950927734375,9809.1005859375,4638.443359375,1767.43701171875,-9818.1005859375,-4898.2646484375,-5173.15185546875,-5267.93505859375,-1145.810302734375,3621.138671875,3747.26708984375,-5.099999904632568,-17.399999618530273,-4083.859130859375,-5299.9111328125,-17.100000381469727,-8306.5732421875,4863.994140625,2349.141357421875,0.0
0,0.219970703125,-430.79998779296875,-203.75595092773438,-6029.6796875,8889.6943359375,9823.5,6716.38525390625,9683.0703125,-707.0213623046875,-11930.19921875,3220.365478515625,8205.20703125,3993.683837890625,-9678.02734375,-9379.990234375,-7583.623046875,-4878.68798828125,-6.0,-18.0,9816.2998046875,9557.8310546875,-17.399999618530273,7103.666015625,-8798.7060546875,-8466.017578125,0.0
0,0.223388671875,-4347.89990234375,-5093.89892578125,-9828.900390625,3149.63232421875,6978.71142578125,854.32177734375,9809.1005859375,-6476.33984375,-14213.138671875,9817.7998046875,5462.2509765625,4471.7734375,-3275.10009765625,-6390.568359375,-9277.763671875,-6988.91015625,-5.699999809265137,-17.700000762939453,-1198.3154296875,9825.2998046875,-17.700000762939453,9836.69921875,-9375.728515625,-7480.04248046875,0.0
0,0.2265625,-3698.39990234375,-4860.13427734375,-5244.099609375,-6788.04150390625,-6993.40185546875,-6147.3369140625,9809.1005859375,-5287.09521484375,-5081.38134765625,5710.5458984375,-2793.873779296875,1922.5625,6410.42626953125,3415.840087890625,-1098.0594482421875,-1884.5992431640625,-6.0,-17.399999618530273,-9816.6005859375,-2544.85693359375,-17.700000762939453,-387.25982666015625,796.1004638671875,1909.0330810546875,0.0
0,0.22998046875,-17.399999618530273,-652.379150390625,8407.1171875,-9819.900390625,-9823.80078125,-5451.10107421875,9613.9189453125,1584.0631103515625,6112.3857421875,-9390.53515625,-9814.5,-6171.6474609375,5434.10498046875,7565.76611328125,8352.6240234375,5688.046875,-5.400000095367432,-17.399999618530273,-9816.6005859375,-9825.6005859375,-17.100000381469727,-9837.0,9806.7001953125,9514.306640625,0.0
0,0.2333984375,2757.60009765625,3239.08935546875,8685.1748046875,-1110.612548828125,-2502.718505859375,2709.65185546875,9809.1005859375,5197.29541015625,2503.868896484375,-9818.1005859375,-4383.99755859375,-4931.85595703125,-4475.1806640625,-388.93377685546875,4516.6083984375,4248.384765625,-5.400000095367432,-17.399999618530273,-2986.50146484375,-5215.35205078125,-17.399999618530273,-8287.9609375,5105.51806640625,2830.593994140625,0.0
0,0.236572265625,246.3000030517578,628.37255859375,-5310.3896484375,9717.708984375,9823.5,6675.5888671875,9015.4990234375,-243.05731201171875,-11046.4814453125,3365.384033203125,8942.6123046875,4183.05859375,-8981.85546875,-8894.1982421875,-6884.7490234375,-4404.30810546875,-6.0,-17.399999618530273,9816.2998046875,9578.5205078125,-18.0,7133.38623046875,-8639.4853515625,-8077.43896484375,0.0
0,0.239990234375,-3835.800048828125,-4419.9140625,-9828.900390625,3676.46875,7154.3935546875,1058.60302734375,9809.1005859375,-5966.87744140625,-14139.49609375,9817.7998046875,5860.90478515625,4898.54248046875,-2679.109375,-5935.0634765625,-9228.0146484375,-6574.31591796875,-6.300000190734863,-17.399999618530273,-891.2470703125,9825.2998046875,-17.100000381469727,9836.69921875,-9475.9892578125,-7437.49951171875,0.0
0,0.243408203125,-1706.699951171875,-2493.98486328125,-2624.8994140625,-4437.35546875,-5362.796875,-6183.333984375,-3005.565673828125,-3668.908203125,-1472.8641357421875,5833.69140625,-931.19140625,2705.572998046875,8074.82080078125,5523.0390625,1599.438720703125,-312.447509765625,-5.699999809265137,-17.399999618530273,-9816.6005859375,-2239.60595703125,-17.700000762939453,-321.21551513671875,1868.7410888671875,3725.49072265625,0.0
0,0.24658203125,3492.89990234375,3305.707763671875,9828.599609375,-7491.09033203125,-9823.80078125,-4995.4423828125,-9809.400390625,4559.12060546875,11414.697265625,-9348.587890625,-9008.2060546875,-4102.9267578125,8656.4150390625,9825.8994140625,9819.900390625,8570.67578125,-5.699999809265137,-17.399999618530273,-9816.6005859375,-9825.6005859375,-17.399999618530273,-9837.0,9806.7001953125,9816.900390625,0.0
0,0.25,5456.39990234375,6317.3349609375,9581.4384765625,2352.484619140625,1.1991944313049316,2967.628173828125,-9542.970703125,7498.25830078125,7364.32080078125,-9818.1005859375,-1936.0634765625,-3343.325927734375,-1129.5931396484375,2964.23291015625,7592.01416015625,6504.015625,-5.400000095367432,-17.100000381469727,-733.3690795898438,-4866.32275390625,-17.399999618530273,-8263.0439453125,6413.99560546875,5480.53076171875,0.0
0,0.25341796875,2784.89990234375,3409.536376953125,-2473.72265625,9819.599609375,9823.5,7185.2421875,-9786.6484375,2044.734619140625,-6922.46142578125,3463.0615234375,9814.2001953125,5972.36865234375,-6086.78515625,-6379.4736328125,-4216.919921875,-2313.0126953125,-5.699999809265137,-17.700000762939453,9816.2998046875,9688.267578125,-17.100000381469727,7157.1015625,-8185.76806640625,-6099.4990234375,0.0
0,0.256591796875,-1352.0999755859375,-1676.560302734375,-9828.900390625,6293.5703125,8466.3125,1614.4521484375,-9809.400390625,-3760.20458984375,-9352.6875,9817.7998046875,8114.4541015625,6797.99560546875,293.04632568359375,-3078.484130859375,-6140.322265625,-4465.29541015625,-5.699999809265137,-17.399999618530273,1890.342529296875,9825.2998046875,-17.399999618530273,9836.69921875,-8679.888671875,-4921.7822265625,0.0
0,0.260009765625,-1353.0,-2177.39794921875,-2061.88525390625,-4147.5654296875,-4583.92041015625,-5663.181640625,-9594.759765625,-3125.0224609375,-1031.0048828125,5870.84521484375,-64.6951904296875,3709.771240234375,9107.83203125,5986.94091796875,1769.3621826171875,105.15060424804688,-5.699999809265137,-17.399999618530273,-9816.6005859375,-1875.2838134765625,-17.100000381469727,-298.7004089355469,2288.639404296875,4086.205810546875,0.0
0,0.263427734375,2119.199951171875,1813.697998046875,9181.5986328125,-8867.8173828125,-9823.80078125,-4918.64990234375,-9809.400390625,3550.373046875,10015.4755859375,-9336.6025390625,-9469.7578125,-4437.5595703125,7830.06591796875,9603.994140625,9819.900390625,7600.58642578125,-5.400000095367432,-17.100000381469727,-9816.6005859375,-9825.6005859375,-17.700000762939453,-9837.0,9806.7001953125,9816.900390625,0.0
0,0.2666015625,4509.0,5261.3447265625,9504.6494140625,1258.3544921875,-632.2752075195312,3217.805419921875,-9530.09765625,6891.8125,6186.029296875,-9818.1005859375,-2525.807861328125,-3638.943115234375,-2158.104736328125,1855.0072021484375,6661.48095703125,5845.171875,-5.400000095367432,-17.399999618530273,-815.45361328125,-4911.0009765625,-17.399999618530273,-8252.537109375,5920.173828125,4600.61376953125,0.0
0,0.27001953125,1832.699951171875,2378.453125,-3524.462158203125,9819.599609375,9823.5,7204.4404296875,-9809.400390625,1257.492431640625,-7658.8935546875,3546.357177734375,9814.2001953125,5198.96142578125,-7042.7099609375,-7294.681640625,-5331.46240234375,-3033.144287109375,-5.699999809265137,-17.399999618530273,9816.2998046875,9636.6923828125,-17.399999618530273,7171.21142578125,-8406.3427734375,-6947.658203125,0.0
0,0.273193359375,-2230.199951171875,-2628.7216796875,-9828.900390625,5517.400390625,8151.22412109375,1517.56103515625,-9510.3408203125,-4425.3193359375,-10383.69140625,9817.7998046875,7523.51171875,5901.54052734375,-821.2496337890625,-4010.78564453125,-7209.61181640625,-5176.11376953125,-5.699999809265137,-17.700000762939453,2152.47412109375,9825.2998046875,-17.399999618530273,9836.69921875,-8944.1591796875,-5785.5205078125,0.0
0,0.276611328125,-1915.199951171875,-2803.969970703125,-2793.4736328125,-4781.98681640625,-5220.09326171875,-5611.58642578125,-9809.400390625,-3602.755859375,-1620.1505126953125,5928.0732421875,-829.056884765625,3040.805908203125,8528.3388671875,5375.80224609375,1060.2987060546875,-305.5376281738281,-6.0,-16.799999237060547,-9816.6005859375,-2071.08837890625,-17.100000381469727,-275.8851013183594,1898.669677734375,3445.367431640625,0.0
0,0.280029296875,1580.0999755859375,1100.1021728515625,8977.9296875,-9403.345703125,-9823.80078125,-4892.25244140625,-9809.400390625,3081.020751953125,9205.400390625,-9320.1240234375,-9757.5927734375,-5096.92138671875,7345.35498046875,9456.4580078125,9791.7294921875,7073.0302734375,-5.699999809265137,-17.700000762939453,-9816.6005859375,-9825.6005859375,-17.399999618530273,-9837.0,9806.7001953125,9816.900390625,0.0
0,0.283203125,3740.10009765625,4367.09912109375,8933.8369140625,334.4423828125,-1572.443603515625,3016.823974609375,-6773.00048828125,6176.708984375,4860.45166015625,-9818.1005859375,-3431.840087890625,-4372.43408203125,-3363.283935546875,556.26220703125,5552.63232421875,5143.06640625,-5.400000095367432,-17.399999618530273,-1198.6151123046875,-5024.0458984375,-17.100000381469727,-8249.53515625,5222.23974609375,3549.028076171875,0.0
0,0.28662109375,-1799.699951171875,-1649.2529296875,-6906.14599609375,7362.22802734375,9823.5,6642.591796875,9809.1005859375,-1845.080322265625,-13255.77734375,3524.484375,7215.91015625,2840.326416015625,-9828.6005859375,-9826.2001953125,-8540.529296875,-6122.76953125,-6.0,-17.399999618530273,9816.2998046875,9565.626953125,-17.100000381469727,7168.509765625,-9244.3427734375,-9219.50390625,0.0
0,0.2900390625,-5321.7001953125,-6033.45654296875,-9828.900390625,2356.68017578125,6507.72802734375,959.0121459960938,9055.9130859375,-7139.6591796875,-15096.857421875,9817.7998046875,4920.12939453125,3876.33740234375,-4497.37646484375,-7185.228515625,-9657.169921875,-7793.162109375,-5.699999809265137,-17.700000762939453,661.1705322265625,9825.2998046875,-17.100000381469727,9836.69921875,-9536.7451171875,-8158.9296875,0.0
0,0.293212890625,-4928.10009765625,-6106.6767578125,-6403.4228515625,-7953.794921875,-7769.580078125,-6260.4267578125,9809.1005859375,-6285.96484375,-6333.31591796875,5895.11474609375,-3678.04150390625,1012.6015625,5099.9658203125,2052.022705078125,-2695.400390625,-3019.925537109375,-5.699999809265137,-17.399999618530273,-9816.6005859375,-2816.823974609375,-16.799999237060547,-297.4996032714844,-463.5938415527344,440.7074279785156,0.0
0,0.296630859375,-782.0999755859375,-1425.9915771484375,8108.66259765625,-9819.900390625,-9823.80078125,-5343.11083984375,9436.6982421875,1058.736083984375,5155.0244140625,-9333.6064453125,-9814.5,-6692.0537109375,4321.00830078125,6688.94091796875,7473.03759765625,5018.3876953125,-5.400000095367432,-17.399999618530273,-9816.6005859375,-9825.6005859375,-17.700000762939453,-9837.0,9806.7001953125,8556.1953125,0.0
0,0.300048828125,1996.800048828125,2468.778076171875,8254.740234375,-1835.8370361328125,-3131.696044921875,2658.356689453125,9809.1005859375,4645.9267578125,1546.50732421875,-9818.1005859375,-4687.40625,-5665.04638671875,-5527.68798828125,-1354.8209228515625,3567.494384765625,3490.098876953125,-5.699999809265137,-17.399999618530273,-1389.7462158203125,-5314.9033203125,-17.100000381469727,-8260.0419921875,4255.84521484375,1629.80859375,0.0
0,0.30322265625,-561.2999877929688,-222.96121215820312,-5896.80029296875,8967.01171875,9823.5,6561.8994140625,9676.185546875,-865.966552734375,-12003.8427734375,3485.533203125,8335.794921875,3324.718505859375,-9821.4013671875,-9465.154296875,-7704.9970703125,-5216.37109375,-5.699999809265137,-17.100000381469727,9816.2998046875,9550.03515625,-17.399999618530273,7155.0009765625,-9019.279296875,-8874.068359375,0.0
0,0.306640625,-4389.2998046875,-4965.76318359375,-9828.900390625,3343.824462890625,6950.23046875,787.1279296875,9809.1005859375,-6430.841796875,-14286.7822265625,9817.7998046875,5713.54345703125,4028.197509765625,-3638.6337890625,-6510.8173828125,-9369.46875,-7196.8076171875,-6.0,-17.399999618530273,1907.1190185546875,9825.2998046875,-17.700000762939453,9836.69921875,-9560.6875,-7863.52685546875,0.0
0,0.31005859375,-3842.10009765625,-4888.34228515625,-5112.11962890625,-6775.45556640625,-7053.9609375,-6304.82275390625,9809.1005859375,-5450.5302734375,-5375.9541015625,5904.70263671875,-2636.3291015625,1391.351806640625,6138.3759765625,3155.85107421875,-1330.0185546875,-2199.4501953125,-6.0,-17.399999618530273,-9816.6005859375,-2644.408203125,-16.799999237060547,-319.7145080566406,90.38433837890625,1249.9193115234375,0.0
0,0.313232421875,-14.399999618530273,-515.5415649414062,8484.205078125,-9819.900390625,-9823.80078125,-5444.80126953125,9622.30078125,1739.4163818359375,6038.7431640625,-9324.01953125,-9814.5,-6478.66943359375,5170.453125,7477.603515625,8246.8349609375,5545.34228515625,-6.0,-17.399999618530273,-9816.6005859375,-9825.6005859375,-17.100000381469727,-9837.0,9806.7001953125,9037.3486328125,0.0
0,0.316650390625,2785.800048828125,3430.241943359375,8839.0517578125,-863.3768310546875,-2574.07080078125,2698.2529296875,9809.1005859375,5312.5380859375,2356.58251953125,-9818.1005859375,-4129.70947265625,-5365.828125,-4747.23046875,-561.6599731445312,4431.197265625,4123.40576171875,-5.699999809265137,-17.100000381469727,-220.4900360107422,-5253.43359375,-17.399999618530273,-8262.4443359375,4628.4560546875,2153.803955078125,0.0
0,0.320068359375,295.20001220703125,857.0353393554688,-5086.0234375,9819.599609375,9823.5,6670.7890625,9021.486328125,-149.66583251953125,-10899.1943359375,3541.563232421875,9188.5146484375,3631.740234375,-9279.400390625,-9050.1318359375,-7001.328125,-4582.76416015625,-5.400000095367432,-18.0,9816.2998046875,9568.9248046875,-17.399999618530273,7156.8017578125,-8817.560546875,-8474.705078125,0.0
0,0.3232421875,-3837.89990234375,-4303.181640625,-9828.900390625,3899.4306640625,7088.43798828125,1040.0047607421875,9809.1005859375,-5865.703125,-13992.208984375,9817.7998046875,6141.849609375,4400.64501953125,-2999.45068359375,-6147.671875,-9310.4287109375,-6741.35546875,-5.400000095367432,-18.0,3029.640869140625,9825.2998046875,-17.700000762939453,9836.69921875,-9638.501953125,-7898.2802734375,0.0
0,0.32666015625,-1577.0999755859375,-2321.137451171875,-2322.845458984375,-4249.15673828125,-5349.60595703125,-6028.84765625,-2863.968994140625,-3436.028076171875,-1620.1505126953125,5894.2158203125,-566.0828857421875,2439.0673828125,7935.3466796875,5398.29248046875,1540.100341796875,-369.2288513183594,-6.0,-18.0,-9490.3583984375,-2356.8486328125,-17.100000381469727,-319.414306640625,1364.1451416015625,3140.377685546875,0.0
0,0.330078125,3627.300048828125,3532.27001953125,9828.599609375,-7323.26953125,-9823.80078125,-5008.34130859375,-9809.400390625,4709.98388671875,11635.626953125,-9334.505859375,-8616.740234375,-4651.544921875,8492.9443359375,9825.8994140625,9819.900390625,8482.6494140625,-5.699999809265137,-17.399999618530273,-9816.6005859375,-9825.6005859375,-17.100000381469727,-9837.0,9806.7001953125,9816.900390625,0.0
0,0.333251953125,5641.7998046875,6588.9091796875,9641.728515625,2664.750732421875,178.08035278320312,3065.71923828125,-9526.505859375,7762.56787109375,7290.67724609375,-9818.1005859375,-1370.57958984375,-3807.909912109375,-1455.6334228515625,2835.588134765625,7612.99267578125,6496.5048828125,-5.400000095367432,-17.399999618530273,2254.630615234375,-4904.40380859375,-17.399999618530273,-8271.75,6119.7978515625,4857.36865234375,0.0
0,0.336669921875,3014.699951171875,3819.748779296875,-2025.2908935546875,9819.599609375,9823.5,7334.02880859375,-9797.1259765625,2304.853759765625,-6775.17529296875,3562.536865234375,9814.2001953125,5642.2373046875,-6272.451171875,-6450.2431640625,-4252.5830078125,-2255.330322265625,-5.699999809265137,-17.700000762939453,9816.2998046875,9677.47265625,-17.399999618530273,7142.39208984375,-8413.82421875,-6676.52294921875,0.0
0,0.340087890625,-1063.5,-1270.248779296875,-9828.900390625,6526.7216796875,8520.5751953125,1783.9366455078125,-9809.400390625,-3453.389404296875,-9426.330078125,9817.7998046875,8339.689453125,6416.24462890625,49.19099044799805,-3135.759765625,-6082.48193359375,-4350.83154296875,-5.699999809265137,-17.399999618530273,5340.29248046875,9825.2998046875,-17.700000762939453,9836.69921875,-8820.5537109375,-5429.2998046875,0.0
0,0.34326171875,-1197.300048828125,-1914.2255859375,-1602.6553955078125,-3943.783203125,-4515.26611328125,-5615.48583984375,-9597.7529296875,-2974.758056640625,-810.0752563476562,5927.1748046875,282.741943359375,3134.7431640625,8902.369140625,5894.88037109375,1702.831298828125,-3.60516357421875,-6.0,-17.399999618530273,-8838.1748046875,-2038.4041748046875,-17.399999618530273,-340.7286071777344,1849.5867919921875,3464.54150390625,0.0
0,0.3466796875,2291.699951171875,2113.7802734375,9331.2763671875,-8697.2998046875,-9823.80078125,-4848.4560546875,-9809.400390625,3730.869873046875,10089.119140625,-9321.0224609375,-9399.9716796875,-5168.64990234375,7596.708984375,9525.728515625,9819.900390625,7421.52978515625,-5.699999809265137,-17.100000381469727,-9816.6005859375,-9825.6005859375,-17.100000381469727,-9837.0,9806.7001953125,9816.900390625,0.0
0,0.35009765625,4583.10009765625,5519.41552734375,9523.2470703125,1355.7503662109375,-664.6534423828125,3090.9169921875,-9529.5,6917.85400390625,6186.029296875,-9818.1005859375,-2285.297607421875,-4352.02587890625,-2691.406982421875,1472.07080078125,6565.28076171875,5571.7802734375,-5.400000095367432,-17.399999618530273,2712.08740234375,-5005.7548828125,-17.700000762939453,-8280.1552734375,5540.97900390625,3760.244140625,0.0
0,0.353271484375,2048.10009765625,2797.068115234375,-3090.728271484375,9819.599609375,9823.5,7392.22314453125,-9809.400390625,1508.032958984375,-7732.53662109375,3624.559326171875,9814.2001953125,4801.6044921875,-7279.3671875,-7560.36865234375,-5314.68017578125,-3080.91259765625,-5.699999809265137,-17.100000381469727,9816.2998046875,9613.603515625,-17.700000762939453,7125.88134765625,-8588.6064453125,-7534.26953125,0.0
0,0.356689453125,-2094.60009765625,-2291.129150390625,-9828.900390625,5633.07666015625,8100.25830078125,1558.6573486328125,-9507.646484375,-4270.56494140625,-10383.69140625,9817.7998046875,7765.81884765625,5562.10546875,-1113.09619140625,-4301.36181640625,-7207.513671875,-5287.87353515625,-5.699999809265137,-17.700000762939453,5795.9521484375,9825.2998046875,-17.100000381469727,9836.69921875,-9178.798828125,-6438.0439453125,0.0
0,0.35986328125,-1851.9000244140625,-2462.176025390625,-2350.141357421875,-4613.56689453125,-5121.458984375,-5670.0810546875,-9809.400390625,-3535.40625,-1472.8641357421875,5966.1259765625,-333.958984375,2490.387451171875,8135.41015625,5032.74853515625,944.9185791015625,-582.2339477539062,-5.699999809265137,-17.399999618530273,-8446.02734375,-2230.310302734375,-17.100000381469727,-404.3713073730469,1331.5228271484375,2631.661376953125,0.0
0,0.36328125,1483.800048828125,1419.6898193359375,9044.2197265625,-9433.9130859375,-9823.80078125,-5043.13818359375,-9809.400390625,3108.260009765625,9352.6875,-9309.9365234375,-9681.515625,-5824.40966796875,6834.54833984375,9070.22265625,9694.9296875,6749.466796875,-6.0,-17.700000762939453,-9816.6005859375,-9825.6005859375,-17.399999618530273,-9837.0,9806.7001953125,9735.708984375,0.0
0,0.36669921875,3735.300048828125,4710.99365234375,9123.107421875,430.939208984375,-1406.355224609375,3001.8251953125,-6805.9296875,6293.74755859375,4934.09521484375,-9818.1005859375,-2991.85302734375,-4962.76806640625,-3849.494873046875,178.72361755371094,5463.02587890625,4841.43408203125,-5.699999809265137,-17.100000381469727,3332.215576171875,-5099.90869140625,-17.100000381469727,-8302.669921875,4935.5234375,2569.64501953125,0.0
0,0.369873046875,-1728.300048828125,-1160.4185791015625,-6567.49755859375,7544.732421875,9823.5,6654.890625,9809.1005859375,-1595.437744140625,-13108.490234375,3583.2109375,7787.68359375,2579.52294921875,-9828.6005859375,-9826.2001953125,-8575.5927734375,-6251.654296875,-5.400000095367432,-17.399999618530273,9816.2998046875,9547.3359375,-17.100000381469727,7099.46337890625,-9369.443359375,-9410.0478515625,0.0
0,0.373291015625,-5160.0,-5514.31396484375,-9828.900390625,2549.374267578125,6573.3837890625,981.2101440429688,9058.0087890625,-6829.251953125,-15244.1435546875,9817.7998046875,5540.72412109375,3548.907470703125,-4755.62890625,-7322.8701171875,-9651.17578125,-7902.81884765625,-6.0,-17.399999618530273,5265.9970703125,9825.2998046875,-17.700000762939453,9836.69921875,-9566.3740234375,-8569.3779296875,0.0
0,0.376708984375,-4977.2998046875,-5676.05859375,-6056.9755859375,-7843.2138671875,-7729.4072265625,-6408.61328125,9809.1005859375,-6200.056640625,-6259.67236328125,5929.5712890625,-3381.22216796875,261.70379638671875,4663.5458984375,1652.293701171875,-2868.02099609375,-3274.690185546875,-5.699999809265137,-17.100000381469727,-8845.365234375,-2977.54541015625,-17.399999618530273,-467.4136047363281,-1029.54345703125,-510.5135803222656,0.0
0,0.3798828125,-838.2000122070312,-880.1417236328125,8337.8271484375,-9819.900390625,-9823.80078125,-5401.60546875,9435.5009765625,1188.3466796875,5007.73779296875,-9320.4228515625,-9814.5,-7352.3154296875,3899.285888671875,6333.29296875,7216.50439453125,4742.29248046875,-5.699999809265137,-17.399999618530273,-9816.6005859375,-9825.6005859375,-17.700000762939453,-9837.0,9806.7001953125,7654.1083984375,0.0
0,0.38330078125,1876.199951171875,2938.706787109375,8425.7138671875,-1704.876953125,-3103.215087890625,2603.76171875,9809.1005859375,4683.34326171875,1693.7938232421875,-9818.1005859375,-4551.126953125,-6374.52783203125,-6059.490234375,-1702.9720458984375,3289.083740234375,3193.273681640625,-5.699999809265137,-17.100000381469727,3058.999755859375,-5411.75634765625,-17.399999618530273,-8322.484375,3834.75,761.5759887695312,0.0
0,0.38671875,-442.20001220703125,403.0106506347656,-5514.658203125,9338.314453125,9823.5,6647.69091796875,9676.7841796875,-632.7871704101562,-11930.19921875,3568.529296875,8710.7880859375,2957.372802734375,-9828.6005859375,-9525.12890625,-7802.6953125,-5336.54345703125,-5.400000095367432,-17.399999618530273,9816.2998046875,9528.1455078125,-17.399999618530273,7070.04345703125,-9089.91015625,-9069.705078125,0.0
0,0.389892578125,-4297.7998046875,-4396.20703125,-9828.900390625,3647.400146484375,6990.103515625,781.428466796875,9809.1005859375,-6247.650390625,-14139.49609375,9817.7998046875,6012.15966796875,3651.84814453125,-4009.965576171875,-6648.158203125,-9425.8095703125,-7389.984375,-5.699999809265137,-17.700000762939453,6179.71240234375,9825.2998046875,-17.399999618530273,9836.69921875,-9644.1884765625,-8364.154296875,0.0
0,0.393310546875,-3682.5,-4193.951171875,-4615.99560546875,-6442.51123046875,-6922.94921875,-6294.02392578125,9809.1005859375,-5209.26904296875,-5228.66796875,5946.650390625,-2239.471923828125,869.1446533203125,5772.14306640625,2983.724609375,-1465.1781005859375,-2470.73876953125,-5.699999809265137,-17.700000762939453,-8192.8828125,-2719.97119140625,-17.399999618530273,-552.6707763671875,-285.8180236816406,379.2900085449219,0.0
0,0.396728515625,80.4000015258789,15.30420207977295,8711.5712890625,-9819.900390625,-9823.80078125,-5507.19580078125,9615.1162109375,1839.6925048828125,6186.029296875,-9313.83203125,-9814.5,-7111.92041015625,4684.84228515625,7190.02685546875,8018.171875,5272.85205078125,-5.400000095367432,-17.399999618530273,-9816.6005859375,-9825.6005859375,-17.399999618530273,-9837.0,9806.7001953125,8205.6669921875,0.0
0,0.39990234375,2757.60009765625,3774.436279296875,8937.1357421875,-671.2822265625,-2521.00634765625,2539.567626953125,9809.1005859375,5287.9931640625,2430.225830078125,-9818.1005859375,-4052.13525390625,-5955.86181640625,-5216.044921875,-851.635986328125,4176.162109375,3746.666259765625,-5.400000095367432,-17.399999618530273,3644.676513671875,-5302.009765625,-17.700000762939453,-8329.087890625,4364.48583984375,1311.636474609375,0.0
0,0.4033203125,565.2000122070312,1399.8843994140625,-4685.5849609375,9819.599609375,9823.5,6813.576171875,9015.2001953125,168.5237274169922,-10972.837890625,3508.3046875,9470.05859375,3572.316650390625,-9421.8740234375,-9089.71484375,-7013.015625,-4674.09423828125,-5.400000095367432,-17.700000762939453,9816.2998046875,9548.53515625,-17.399999618530273,7074.24658203125,-8882.20703125,-8717.978515625,0.0
0,0.40673828125,-3720.60009765625,-3925.07763671875,-9828.900390625,4153.55859375,7049.4638671875,917.0159912109375,9809.1005859375,-5829.783203125,-13918.56640625,9817.7998046875,6194.2646484375,3889.242431640625,-3406.77587890625,-6365.37939453125,-9409.02734375,-7028.56689453125,-5.699999809265137,-17.700000762939453,6514.6416015625,9825.2998046875,-17.700000762939453,9836.69921875,-9714.8203125,-8255.1005859375,0.0
0,0.409912109375,-1428.300048828125,-1848.507568359375,-1855.516845703125,-3943.4833984375,-5365.794921875,-6182.43408203125,-3005.864990234375,-3370.474609375,-1546.50732421875,5922.38037109375,-470.2381896972656,1830.1258544921875,7749.6806640625,5170.68994140625,1377.369384765625,-712.6206665039062,-6.0,-17.700000762939453,-7548.7880859375,-2516.370849609375,-17.399999618530273,-571.8836669921875,1089.400634765625,2416.251220703125,0.0
0,0.413330078125,3621.0,3814.04736328125,9828.599609375,-7169.234375,-9823.80078125,-5168.82666015625,-9809.400390625,4679.75146484375,11635.626953125,-9315.330078125,-8803.6376953125,-5423.15087890625,8255.087890625,9825.8994140625,9819.900390625,7983.333984375,-5.400000095367432,-17.399999618530273,-9816.6005859375,-9825.6005859375,-17.399999618530273,-9837.0,9806.7001953125,9816.900390625,0.0
0,0.416748046875,5601.89990234375,6784.86279296875,9716.1171875,2795.410888671875,12.891338348388672,2952.629638671875,-9543.5693359375,7679.0546875,7290.67724609375,-9818.1005859375,-1723.70751953125,-4318.41259765625,-1830.8646240234375,2453.25146484375,7375.638671875,6075.90234375,-5.400000095367432,-17.399999618530273,4889.72607421875,-4966.173828125,-17.700000762939453,-8340.7958984375,5944.71533203125,4260.271484375,0.0
0,0.419921875,3107.699951171875,4098.525390625,-1705.539794921875,9819.599609375,9823.5,7469.916015625,-9785.451171875,2375.19677734375,-6775.17529296875,3532.574462890625,9814.2001953125,5557.60400390625,-6364.234375,-6509.31787109375,-4303.82958984375,-2459.02197265625,-5.699999809265137,-17.100000381469727,9816.2998046875,9667.5771484375,-17.399999618530273,7062.23828125,-8382.3994140625,-6827.8193359375,0.0
0,0.42333984375,-964.5,-1020.5802001953125,-9814.501953125,6653.18603515625,8491.1953125,1759.638916015625,-9809.400390625,-3353.113525390625,-9573.6171875,9817.7998046875,8269.90234375,6405.43994140625,-170.36878967285156,-3260.20654296875,-6147.5146484375,-4547.0126953125,-5.699999809265137,-17.700000762939453,7534.70751953125,9825.2998046875,-17.399999618530273,9836.69921875,-8823.5458984375,-5651.900390625,0.0
0,0.4267578125,-1065.5999755859375,-1612.94287109375,-1333.2965087890625,-3703.73974609375,-4705.0390625,-5697.37841796875,-9592.365234375,-3005.888671875,-810.0752563476562,5956.8369140625,104.23114013671875,2689.06640625,8699.90625,5717.05615234375,1511.030517578125,-240.34423828125,-6.0,-17.399999618530273,-7075.15380859375,-2150.549560546875,-17.100000381469727,-571.8836669921875,1767.283203125,2909.687744140625,0.0
0,0.429931640625,2250.0,2193.001953125,9363.6708984375,-8546.5615234375,-9823.80078125,-5043.13818359375,-9809.400390625,3687.76611328125,10015.4755859375,-9302.4453125,-9449.990234375,-5490.0771484375,7350.45361328125,9363.7978515625,9819.900390625,7182.98828125,-5.400000095367432,-17.399999618530273,-9816.6005859375,-9825.6005859375,-17.399999618530273,-9837.0,9806.7001953125,9816.900390625,0.0
0,0.433349609375,4649.7001953125,5609.74072265625,9554.7421875,1602.686279296875,-728.5105590820312,3073.818603515625,-9528.900390625,6987.298828125,6112.3857421875,-9818.1005859375,-2414.388671875,-4322.6142578125,-2808.685546875,1368.614990234375,6466.98291015625,5479.24755859375,-5.699999809265137,-17.399999618530273,3916.99365234375,-4981.46630859375,-17.100000381469727,-8330.8896484375,5692.716796875,3704.818603515625,0.0
0,0.4365234375,2142.0,2887.69287109375,-3012.140380859375,9819.599609375,9823.5,7365.2255859375,-9809.400390625,1644.8275146484375,-7732.53662109375,3511.301025390625,9814.2001953125,5323.51123046875,-7234.6748046875,-7434.72216796875,-5335.05859375,-3064.689453125,-5.699999809265137,-17.399999618530273,9816.2998046875,9632.7939453125,-17.700000762939453,7076.04736328125,-8482.66015625,-7346.421875,0.0
0,0.43994140625,-2049.300048828125,-2251.51806640625,-9828.900390625,5734.9677734375,8090.3642578125,1517.56103515625,-9518.1240234375,-4237.03955078125,-10457.3359375,9817.7998046875,7719.39404296875,5829.51220703125,-1103.7978515625,-4319.35400390625,-7276.142578125,-5326.0283203125,-5.699999809265137,-17.700000762939453,6666.22900390625,9825.2998046875,-17.700000762939453,9836.69921875,-9111.1611328125,-6308.31787109375,0.0
0,0.443359375,-1762.199951171875,-2461.27587890625,-2161.47021484375,-4471.5185546875,-5215.8955078125,-5736.6748046875,-9809.400390625,-3422.2587890625,-1620.1505126953125,5924.17822265625,-385.1759948730469,2615.537353515625,8093.1181640625,4997.36376953125,855.011962890625,-675.667724609375,-5.699999809265137,-17.399999618530273,-7727.03759765625,-2238.106689453125,-17.100000381469727,-549.6687622070312,1464.4058837890625,2635.556396484375,0.0
0,0.446533203125,1570.800048828125,1422.0904541015625,9085.9130859375,-9352.400390625,-9823.80078125,-5067.43603515625,-9809.400390625,3137.295166015625,9352.6875,-9315.9287109375,-9709.669921875,-5672.54931640625,6844.146484375,8987.4580078125,9671.2548828125,6740.15380859375,-5.699999809265137,-17.399999618530273,-9816.6005859375,-9825.6005859375,-17.399999618530273,-9837.0,9806.7001953125,9810.009765625,0.0
0,0.449951171875,3781.199951171875,4626.67041015625,9060.4169921875,491.774169921875,-1466.31494140625,2903.43408203125,-6625.11669921875,6276.98486328125,4860.45166015625,-9818.1005859375,-3241.94775390625,-4506.287109375,-3750.213134765625,158.3323211669922,5414.47607421875,4906.927734375,-5.099999904632568,-17.399999618530273,2934.674560546875,-4989.2626953125,-17.100000381469727,-8311.9775390625,5227.3271484375,2883.322998046875,0.0
0,0.453369140625,-1740.5999755859375,-1315.5611572265625,-6660.4833984375,7546.83056640625,9823.5,6581.99755859375,9809.1005859375,-1737.3209228515625,-13329.419921875,3472.349853515625,7390.2275390625,2935.464111328125,-9828.6005859375,-9826.2001953125,-8539.03125,-6180.75244140625,-6.0,-17.700000762939453,9816.2998046875,9594.11328125,-17.700000762939453,7105.1669921875,-9253.6201171875,-9323.763671875,0.0
0,0.45654296875,-5216.10009765625,-5699.1650390625,-9828.900390625,2546.07763671875,6519.7197265625,888.8186645507812,9045.1357421875,-7002.265625,-15096.857421875,9817.7998046875,5238.51318359375,3841.223388671875,-4623.353515625,-7353.15673828125,-9690.4345703125,-7937.96923828125,-5.699999809265137,-17.100000381469727,4464.0244140625,9825.2998046875,-17.100000381469727,9836.69921875,-9541.83203125,-8413.88671875,0.0
0,0.4599609375,-4776.2998046875,-5679.65966796875,-6068.37353515625,-7743.42041015625,-7691.63232421875,-6342.01953125,9809.1005859375,-6134.20361328125,-6259.67236328125,5933.7666015625,-3456.699951171875,521.6068725585938,4931.0966796875,1821.42138671875,-2824.566162109375,-3206.492431640625,-6.0,-18.0,-9105.69921875,-2827.91845703125,-17.700000762939453,-504.93878173828125,-677.583251953125,-169.87159729003906,0.0
0,0.46337890625,-682.2000122070312,-1006.4763793945312,8266.73828125,-9819.900390625,-9823.80078125,-5468.79931640625,9442.0859375,1198.2247314453125,5155.0244140625,-9306.0419921875,-9814.5,-6963.06103515625,4205.22998046875,6431.05078125,7315.701171875,4785.8544921875,-6.0,-17.100000381469727,-9816.6005859375,-9825.6005859375,-17.100000381469727,-9837.0,9806.7001953125,8027.7060546875,0.0
0,0.466552734375,2083.199951171875,2783.26416015625,8368.4228515625,-1727.0533447265625,-2986.293701171875,2621.4599609375,9809.1005859375,4702.50048828125,1620.1505126953125,-9818.1005859375,-4574.78857421875,-5687.55517578125,-5578.978515625,-1501.158447265625,3452.4140625,3405.978271484375,-5.699999809265137,-17.399999618530273,1351.9993896484375,-5270.525390625,-17.700000762939453,-8307.474609375,4300.73828125,1458.139404296875,0.0
0,0.469970703125,-399.6000061035156,159.34375,-5748.92236328125,9172.2919921875,9823.5,6591.896484375,9680.67578125,-732.1652221679688,-11782.9130859375,3507.70556640625,8364.548828125,3449.56787109375,-9828.6005859375,-9479.8486328125,-7727.4736328125,-5182.72265625,-5.400000095367432,-17.399999618530273,9816.2998046875,9575.5224609375,-17.100000381469727,7102.1650390625,-8970.7958984375,-8882.45703125,0.0
0,0.473388671875,-4221.89990234375,-4579.25732421875,-9828.900390625,3504.75244140625,7059.95703125,875.6198120117188,9809.1005859375,-6263.51513671875,-14139.49609375,9817.7998046875,5860.90478515625,4153.34716796875,-3546.550537109375,-6474.5322265625,-9339.4990234375,-7166.7646484375,-5.400000095367432,-17.399999618530273,4511.05810546875,9825.2998046875,-17.700000762939453,9836.69921875,-9566.673828125,-7907.26806640625,0.0
0,0.4765625,-3683.10009765625,-4402.208984375,-4815.46533203125,-6614.52734375,-6906.4599609375,-6305.4228515625,9809.1005859375,-5241.29736328125,-5302.31103515625,5892.11865234375,-2380.8427734375,1217.883056640625,6046.5927734375,2986.723388671875,-1402.543212890625,-2287.476318359375,-6.0,-17.399999618530273,-9022.416015625,-2612.02392578125,-17.100000381469727,-505.8393859863281,-13.1685791015625,948.2250366210938,0.0
0,0.47998046875,117.9000015258789,-53.11458206176758,8627.283203125,-9819.900390625,-9823.80078125,-5400.4052734375,9623.498046875,1860.046875,5817.8134765625,-9330.6103515625,-9814.5,-6550.09765625,5075.97021484375,7332.166015625,8225.2568359375,5541.7373046875,-6.0,-17.399999618530273,-9816.6005859375,-9825.6005859375,-17.700000762939453,-9837.0,9806.7001953125,8845.306640625,0.0
0,0.4833984375,2825.10009765625,3602.4892578125,8832.15234375,-819.9232788085938,-2435.263916015625,2634.058837890625,9809.1005859375,5384.677734375,2282.939453125,-9818.1005859375,-4104.85009765625,-5205.8642578125,-4794.02197265625,-622.833740234375,4329.30322265625,4074.736083984375,-5.400000095367432,-17.399999618530273,1162.965087890625,-5185.6669921875,-17.399999618530273,-8298.7685546875,4676.64111328125,2155.6015625,0.0
0,0.486572265625,355.20001220703125,995.373291015625,-5024.8330078125,9819.599609375,9823.5,6609.59521484375,9023.5830078125,-47.89306640625,-11046.4814453125,3470.252685546875,9015.9931640625,3900.947021484375,-9214.912109375,-9051.9306640625,-7043.8837890625,-4558.7294921875,-5.400000095367432,-17.399999618530273,9816.2998046875,9595.6123046875,-17.399999618530273,7117.17529296875,-8801.3994140625,-8416.283203125,0.0
0,0.489990234375,-3793.199951171875,-4148.33935546875,-9828.900390625,3880.850341796875,7087.23828125,906.8170166015625,9809.1005859375,-5860.9140625,-14213.138671875,9817.7998046875,5984.005859375,4557.607421875,-3005.149658203125,-6224.1396484375,-9316.7236328125,-6808.3515625,-5.400000095367432,-17.399999618530273,4493.38330078125,9825.2998046875,-17.700000762939453,9836.69921875,-9629.224609375,-7869.818359375,0.0
0,0.493408203125,-1491.5999755859375,-2029.457275390625,-2135.674072265625,-4168.84228515625,-5311.2314453125,-6195.9326171875,-2823.256103515625,-3377.359130859375,-1693.7938232421875,5918.4853515625,-457.9580993652344,2182.16552734375,7910.1513671875,5187.78271484375,1461.5819091796875,-556.0964965820312,-6.0,-17.700000762939453,-8861.2431640625,-2390.13232421875,-17.399999618530273,-483.0240783691406,1341.9979248046875,2881.8251953125,0.0
0,0.49658203125,3631.5,3756.7314453125,9828.599609375,-7322.07080078125,-9823.80078125,-5157.1279296875,-9809.400390625,4808.4638671875,11561.9833984375,-9313.5322265625,-8623.0302734375,-4689.9599609375,8509.1416015625,9825.8994140625,9819.900390625,8346.85546875,-5.699999809265137,-17.100000381469727,-9816.6005859375,-9825.6005859375,-17.399999618530273,-9837.0,9806.7001953125,9816.900390625,0.0
0,0.5,5576.39990234375,6637.82275390625,9630.6298828125,2555.967041015625,161.8912353515625,2897.4345703125,-9522.314453125,7704.796875,7143.39111328125,-9818.1005859375,-1686.2681884765625,-3632.04052734375,-1446.9349365234375,2723.43603515625,7519.4892578125,6315.34521484375,-5.699999809265137,-17.700000762939453,2753.429443359375,-4890.31103515625,-17.100000381469727,-8296.3662109375,6193.7216796875,4896.6162109375,0.0
0,0.50341796875,3010.800048828125,3879.465087890625,-2095.7802734375,9819.599609375,9823.5,7299.53173828125,-9799.521484375,2317.42578125,-6922.46142578125,3553.548095703125,9814.2001953125,5895.837890625,-6130.27734375,-6295.208984375,-4296.93701171875,-2233.098388671875,-5.400000095367432,-17.100000381469727,9816.2998046875,9686.4677734375,-17.399999618530273,7115.673828125,-8265.3779296875,-6423.96240234375,0.0
0,0.506591796875,-1251.300048828125,-1281.9520263671875,-9828.900390625,6407.74853515625,8453.12109375,1509.161865234375,-9809.400390625,-3525.22900390625,-9426.330078125,9817.7998046875,8109.96142578125,6349.91796875,-62.98846435546875,-3226.620849609375,-6208.6513671875,-4568.94384765625,-5.400000095367432,-17.399999618530273,5949.3369140625,9825.2998046875,-17.399999618530273,9836.69921875,-8836.416015625,-5322.34375,0.0
0,0.510009765625,-1196.0999755859375,-1638.75,-1425.6824951171875,-3947.07958984375,-4670.86181640625,-5731.875,-9596.85546875,-2855.32470703125,-1104.6480712890625,5974.51513671875,125.49668884277344,2928.861572265625,8857.078125,5843.00244140625,1655.1807861328125,-49.27056884765625,-6.0,-17.399999618530273,-8055.076171875,-2086.98046875,-17.700000762939453,-481.8232727050781,1924.7076416015625,3254.224609375,0.0
0,0.513427734375,2189.39990234375,2223.01025390625,9292.58203125,-8719.4765625,-9823.80078125,-5056.3369140625,-9809.400390625,3824.85986328125,10015.4755859375,-9296.1533203125,-9461.671875,-5275.4921875,7560.115234375,9502.638671875,9819.900390625,7356.03564453125,-5.699999809265137,-17.700000762939453,-9816.6005859375,-9825.6005859375,-17.100000381469727,-9837.0,9806.7001953125,9816.900390625,0.0
0,0.5166015625,4616.10009765625,5589.634765625,9544.8427734375,1392.91064453125,-688.0377197265625,3150.01171875,-9528.6015625,7122.2978515625,5965.099609375,-9818.1005859375,-2476.6875,-4046.20458984375,-2531.536376953125,1641.7982177734375,6633.310546875,5731.30908203125,-5.699999809265137,-17.100000381469727,2454.7490234375,-4926.89306640625,-17.700000762939453,-8284.658203125,5871.9892578125,4086.804931640625,0.0
0,0.52001953125,1885.199951171875,2693.83984375,-3301.89599609375,9819.599609375,9823.5,7301.03173828125,-9809.400390625,1558.9193115234375,-7879.8232421875,3509.503173828125,9814.2001953125,5233.4755859375,-7210.6796875,-7324.06982421875,-5331.1630859375,-3003.101318359375,-6.0,-17.700000762939453,9816.2998046875,9647.787109375,-17.100000381469727,7127.08154296875,-8413.5244140625,-7165.16552734375,0.0
0,0.523193359375,-2184.89990234375,-2294.1298828125,-9828.900390625,5585.7275390625,8129.03857421875,1526.8602294921875,-9512.734375,-4194.833984375,-10530.978515625,9817.7998046875,7619.3564453125,5832.81298828125,-1003.6162109375,-4126.8359375,-7187.734375,-5136.15625,-6.0,-17.399999618530273,5585.64794921875,9825.2998046875,-17.399999618530273,9836.69921875,-9012.0966796875,-6187.8798828125,0.0
0,0.526611328125,-1800.9000244140625,-2307.33349609375,-2297.6494140625,-4546.4384765625,-5166.12939453125,-5620.58544921875,-9809.400390625,-3317.193603515625,-1546.50732421875,5907.39892578125,-397.45611572265625,2554.31298828125,8214.2958984375,5240.26025390625,1019.8407592773438,-459.3579406738281,-5.699999809265137,-17.399999618530273,-8365.4404296875,-2243.8037109375,-17.399999618530273,-501.6365661621094,1697.2503662109375,2767.678466796875,0.0
0,0.530029296875,1606.5,1524.4185791015625,9096.1123046875,-9411.736328125,-9823.80078125,-4968.44482421875,-9809.400390625,3333.05810546875,9426.330078125,-9321.322265625,-9641.9794921875,-5712.4658203125,6897.53662109375,9188.072265625,9714.1103515625,6923.1162109375,-5.699999809265137,-17.100000381469727,-9816.6005859375,-9825.6005859375,-17.399999618530273,-9837.0,9806.7001953125,9815.7021484375,0.0
0,0.533203125,3769.800048828125,4601.1630859375,8991.7275390625,353.92156982421875,-1530.4718017578125,3027.322998046875,-6707.4404296875,6391.62890625,4934.09521484375,-9818.1005859375,-3385.71484375,-4669.55224609375,-3703.7216796875,424.3186340332031,5509.77734375,5053.23779296875,-5.699999809265137,-17.100000381469727,1724.6754150390625,-5040.23779296875,-17.100000381469727,-8285.859375,5355.72119140625,3066.976318359375,0.0
0,0.53662109375,-1703.699951171875,-1329.9652099609375,-6752.26953125,7398.189453125,9823.5,6747.58251953125,9809.1005859375,-1503.24365234375,-13182.134765625,3453.773193359375,7306.0634765625,3105.33154296875,-9828.6005859375,-9826.2001953125,-8512.658203125,-5902.25341796875,-6.0,-17.100000381469727,9816.2998046875,9577.62109375,-17.700000762939453,7127.38232421875,-9186.28125,-9265.94140625,0.0
0,0.5400390625,-5204.7001953125,-5720.470703125,-9828.900390625,2452.57763671875,6484.6435546875,1047.8040771484375,9051.7216796875,-6829.8505859375,-15170.5,9817.7998046875,5121.70263671875,3923.455810546875,-4599.95751953125,-7163.93798828125,-9652.375,-7665.47900390625,-6.0,-17.100000381469727,2887.04150390625,9825.2998046875,-17.700000762939453,9836.69921875,-9531.05859375,-8281.7646484375,0.0
0,0.543212890625,-4787.7001953125,-5671.857421875,-6125.6650390625,-7850.40576171875,-7748.89404296875,-6240.62890625,9809.1005859375,-5945.92431640625,-6333.31591796875,5890.919921875,-3500.728515625,511.70294189453125,4935.59619140625,2048.12451171875,-2670.2265625,-2997.993896484375,-6.0,-17.399999618530273,-9686.283203125,-2865.7001953125,-17.100000381469727,-523.2510986328125,-593.1846313476562,12.28348445892334,0.0
0,0.546630859375,-688.2000122070312,-999.2744140625,8252.33984375,-9819.900390625,-9823.80078125,-5330.2119140625,9439.3916015625,1346.094482421875,5007.73779296875,-9328.2138671875,-9814.5,-7027.28662109375,4130.54345703125,6635.26416015625,7401.1123046875,5050.53369140625,-5.699999809265137,-17.399999618530273,-9816.6005859375,-9825.6005859375,-17.399999618530273,-9837.0,9806.7001953125,8158.9296875,0.0
0,0.550048828125,2049.60009765625,2702.241943359375,8222.044921875,-1848.423583984375,-3040.557373046875,2713.25146484375,9809.1005859375,4815.3486328125,1620.1505126953125,-9818.1005859375,-4810.50634765625,-5655.44287109375,-5600.57421875,-1236.37158203125,3572.28955078125,3578.124755859375,-5.400000095367432,-17.100000381469727,-309.4649658203125,-5289.7158203125,-17.100000381469727,-8299.96875,4463.5498046875,1698.1168212890625,0.0
0,0.55322265625,-487.20001220703125,6.301730632781982,-5878.80322265625,8982.89453125,9823.5,6678.888671875,9676.185546875,-563.9408569335938,-11930.19921875,3353.998046875,8159.38134765625,3724.1767578125,-9828.6005859375,-9399.1826171875,-7673.8291015625,-4909.6318359375,-5.099999904632568,-17.700000762939453,9816.2998046875,9571.0244140625,-17.399999618530273,7118.3759765625,-8915.12890625,-8741.046875,0.0
0,0.556640625,-4220.10009765625,-4687.287109375,-9828.900390625,3418.145263671875,7034.47412109375,914.916259765625,9809.1005859375,-6109.359375,-14360.42578125,9817.7998046875,5647.35107421875,4347.22412109375,-3396.577880859375,-6258.9248046875,-9179.4658203125,-6921.9140625,-5.699999809265137,-17.100000381469727,2182.13232421875,9825.2998046875,-17.700000762939453,9836.69921875,-9459.2294921875,-7672.38427734375,0.0
0,0.56005859375,-3588.89990234375,-4391.10546875,-4891.05322265625,-6535.1123046875,-6919.0517578125,-6149.43701171875,9809.1005859375,-5050.9228515625,-5228.66796875,5863.654296875,-2475.18994140625,1272.8048095703125,6223.26025390625,3383.45361328125,-1141.81396484375,-2018.290771484375,-6.0,-17.700000762939453,-9758.4814453125,-2630.914794921875,-17.700000762939453,-481.8232727050781,364.53021240234375,1205.2794189453125,0.0
0,0.563232421875,227.10000610351562,-66.3182144165039,8628.4833984375,-9819.900390625,-9823.80078125,-5266.61767578125,9632.478515625,1998.9368896484375,5817.8134765625,-9329.1123046875,-9814.5,-6485.27197265625,5232.84130859375,7642.83349609375,8371.8046875,5748.43359375,-5.699999809265137,-17.100000381469727,-9816.6005859375,-9825.6005859375,-17.700000762939453,-9837.0,9806.7001953125,9030.158203125,0.0
0,0.566650390625,2847.300048828125,3451.247802734375,8691.7734375,-890.04833984375,-2499.4208984375,2748.648193359375,9809.1005859375,5433.1689453125,2135.65283203125,-9818.1005859375,-4342.06591796875,-5053.70458984375,-4729.833984375,-400.3288879394531,4449.1787109375,4224.65087890625,-5.699999809265137,-18.0,-912.5172119140625,-5171.87353515625,-17.399999618530273,-8278.654296875,4884.04638671875,2454.300048828125,0.0
0,0.570068359375,288.6000061035156,685.38818359375,-5296.2919921875,9759.0654296875,9823.5,6667.48974609375,9031.3662109375,-108.95672607421875,-11267.41015625,3376.170166015625,8753.01953125,4136.240234375,-9090.7353515625,-8939.478515625,-6975.8544921875,-4445.767578125,-5.699999809265137,-17.399999618530273,9816.2998046875,9603.1083984375,-17.700000762939453,7145.39404296875,-8741.841796875,-8162.2255859375,0.0
0,0.5732421875,-3770.699951171875,-4318.4853515625,-9828.900390625,3849.084228515625,7111.22265625,1040.6046142578125,9809.1005859375,-5776.8017578125,-14065.8525390625,9817.7998046875,5823.4658203125,4867.330078125,-2777.19140625,-5890.38232421875,-9199.8447265625,-6567.40625,-6.0,-17.700000762939453,1505.0841064453125,9825.2998046875,-17.100000381469727,9836.69921875,-9491.8515625,-7446.18798828125,0.0
0,0.57666015625,-1561.5,-2212.50732421875,-2402.933349609375,-4269.83447265625,-5377.4873046875,-6043.546875,-2660.703857421875,-3380.352294921875,-1841.0802001953125,5908.59765625,-744.5936889648438,2320.22021484375,7986.03759765625,5488.5537109375,1559.2803955078125,-368.62799072265625,-6.0,-17.399999618530273,-9757.5830078125,-2348.15283203125,-17.100000381469727,-417.27996826171875,1677.1981201171875,3357.58544921875,0.0
0,0.580078125,3618.60009765625,3568.580078125,9828.599609375,-7267.52880859375,-9823.80078125,-4976.24462890625,-9809.400390625,4883.89501953125,11561.9833984375,-9306.9404296875,-8796.150390625,-4478.9765625,8563.7314453125,9825.8994140625,9819.900390625,8533.1220703125,-6.0,-17.399999618530273,-9816.6005859375,-9825.6005859375,-17.100000381469727,-9837.0,9806.7001953125,9816.900390625,0.0
0,0.583251953125,5658.2998046875,6492.8828125,9566.4404296875,2649.467041015625,219.75234985351562,3109.21533203125,-9504.353515625,7837.40087890625,7143.39111328125,-9818.1005859375,-1783.9100341796875,-3249.688720703125,-1227.6751708984375,3023.0078125,7652.251953125,6594.14501953125,-5.699999809265137,-17.700000762939453,179.1481475830078,-4824.04345703125,-17.399999618530273,-8246.8330078125,6457.99072265625,5488.6201171875,0.0
0,0.586669921875,2916.89990234375,3445.84619140625,-2562.808837890625,9819.599609375,9823.5,7304.3310546875,-9809.400390625,2214.7548828125,-6922.46142578125,3472.349853515625,9814.2001953125,6247.87744140625,-5932.91357421875,-6139.87548828125,-4146.193359375,-2073.570068359375,-5.699999809265137,-17.399999618530273,9816.2998046875,9711.35546875,-17.399999618530273,7186.82177734375,-8158.533203125,-5789.71533203125,0.0
0,0.590087890625,-1179.5999755859375,-1509.4144287109375,-9828.900390625,6468.58349609375,8520.275390625,1713.7431640625,-9809.400390625,-3474.941162109375,-9647.259765625,9817.7998046875,8055.150390625,6951.35693359375,421.7227478027344,-2843.084716796875,-5957.8115234375,-4181.689453125,-5.400000095367432,-17.700000762939453,2404.120361328125,9825.2998046875,-17.399999618530273,9836.69921875,-8541.3203125,-4602.41162109375,0.0
0,0.59326171875,-1130.0999755859375,-1883.9173583984375,-1867.81494140625,-3921.30712890625,-4565.6328125,-5537.79296875,-9597.154296875,-2883.4619140625,-1031.0048828125,5903.80419921875,-104.23114013671875,3460.372314453125,9149.5244140625,6113.78662109375,1877.2501220703125,266.1812438964844,-5.699999809265137,-17.399999618530273,-9816.6005859375,-1945.1497802734375,-17.399999618530273,-330.5217590332031,2400.27294921875,4098.78857421875,0.0
0,0.5966796875,2247.60009765625,1994.647705078125,9224.1923828125,-8713.7822265625,-9823.80078125,-4916.5498046875,-9809.400390625,3770.381591796875,9794.5458984375,-9320.7236328125,-9567.1005859375,-4886.2373046875,7791.67333984375,9597.3974609375,9819.900390625,7637.83935546875,-5.699999809265137,-16.799999237060547,-9816.6005859375,-9825.6005859375,-17.100000381469727,-9837.0,9806.7001953125,9816.900390625,0.0
0,0.60009765625,4665.2998046875,5281.75,9446.7587890625,1368.6365966796875,-603.1947021484375,3276.0,-9526.8046875,7064.2275390625,6112.3857421875,-9818.1005859375,-2829.216552734375,-3515.59423828125,-2100.215576171875,1953.96484375,6794.84228515625,5950.623046875,-5.400000095367432,-17.399999618530273,-1649.481201171875,-4855.52783203125,-17.399999618530273,-8213.5107421875,6220.6572265625,4935.56396484375,0.0
0,0.603271484375,1920.9000244140625,2314.235595703125,-3690.936767578125,9819.599609375,9823.5,7291.732421875,-9809.400390625,1402.967529296875,-7732.53662109375,3449.27880859375,9814.2001953125,5780.892578125,-6729.267578125,-7137.54931640625,-5149.85107421875,-2781.083251953125,-5.699999809265137,-17.399999618530273,9816.2998046875,9671.4755859375,-17.399999618530273,7227.04931640625,-8233.654296875,-6245.40234375,0.0
0,0.606689453125,-2183.39990234375,-2760.4580078125,-9828.900390625,5495.52392578125,8130.53759765625,1548.1583251953125,-9521.416015625,-4291.21875,-10530.978515625,9817.7998046875,7409.396484375,6429.75,-474.81304931640625,-3921.424072265625,-7067.25927734375,-4904.5244140625,-5.699999809265137,-17.700000762939453,543.136474609375,9825.2998046875,-17.399999618530273,9836.69921875,-8787.6318359375,-5192.318359375,0.0
0,0.60986328125,-1754.699951171875,-2794.067138671875,-2880.76025390625,-4751.71923828125,-5164.63037109375,-5653.2822265625,-9809.400390625,-3440.8173828125,-1693.7938232421875,5887.02490234375,-842.8345947265625,3232.28173828125,8773.3935546875,5437.27587890625,1137.618408203125,-203.99217224121094,-5.699999809265137,-17.100000381469727,-9816.6005859375,-2036.6051025390625,-17.399999618530273,-244.06375122070312,2218.0078125,3860.3095703125,0.0
0,0.61328125,1656.300048828125,1096.2010498046875,9018.1240234375,-9473.1708984375,-9823.80078125,-4895.5517578125,-9809.400390625,3144.479248046875,9279.0439453125,-9329.412109375,-9814.5,-4849.02294921875,7505.2255859375,9359.0,9771.05078125,7184.189453125,-5.400000095367432,-17.700000762939453,-9816.6005859375,-9825.6005859375,-17.399999618530273,-9837.0,9806.7001953125,9816.900390625,0.0
0,0.61669921875,3850.5,4240.46435546875,8834.5517578125,256.22601318359375,-1384.1700439453125,3130.8134765625,-6525.72998046875,6274.8896484375,4786.80859375,-9818.1005859375,-3522.59326171875,-3695.9658203125,-3005.149658203125,711.5958862304688,5657.5234375,5338.04541015625,-5.400000095367432,-17.399999618530273,-3298.96240234375,-4893.009765625,-17.700000762939453,-8188.59423828125,5799.56201171875,4416.0625,0.0
0,0.619873046875,-1752.5999755859375,-1794.7928466796875,-7083.71875,7164.73876953125,9823.5,6744.2822265625,9809.1005859375,-1726.5450439453125,-13403.0634765625,3416.320068359375,7038.2978515625,3846.325439453125,-9828.6005859375,-9804.3095703125,-8433.240234375,-5771.56640625,-5.400000095367432,-17.399999618530273,9816.2998046875,9615.703125,-17.399999618530273,7252.265625,-8970.1962890625,-8916.6103515625,0.0
0,0.623291015625,-5237.7001953125,-6158.5908203125,-9828.900390625,2269.173828125,6614.4560546875,1040.6046142578125,9038.2509765625,-6995.68017578125,-15465.0732421875,9817.7998046875,5014.77587890625,4813.30859375,-3926.281005859375,-6886.85595703125,-9607.720703125,-7486.4228515625,-5.400000095367432,-17.399999618530273,-2823.830322265625,9825.2998046875,-17.399999618530273,9836.69921875,-9370.9404296875,-7439.59716796875,0.0
0,0.626708984375,-4905.60009765625,-6257.01806640625,-6604.09228515625,-8083.2568359375,-7682.3388671875,-6273.02587890625,9809.1005859375,-6207.5400390625,-6480.60205078125,5773.16748046875,-3809.228759765625,1602.635498046875,5609.87255859375,2360.890869140625,-2478.725341796875,-2727.005859375,-6.300000190734863,-16.799999237060547,-9816.6005859375,-2649.205810546875,-17.700000762939453,-179.52044677734375,307.6658935546875,1383.539794921875,0.0
0,0.6298828125,-768.0,-1554.7269287109375,7912.49267578125,-9819.900390625,-9823.80078125,-5418.10400390625,9445.37890625,1125.7864990234375,5007.73779296875,-9378.2509765625,-9814.5,-6168.34619140625,4854.31103515625,6948.9296875,7540.16796875,5232.89501953125,-5.699999809265137,-17.100000381469727,-9816.6005859375,-9825.6005859375,-17.399999618530273,-9837.0,9806.7001953125,9296.7998046875,0.0
0,0.63330078125,1986.300048828125,2275.224853515625,7940.38818359375,-1948.8162841796875,-2996.48681640625,2709.65185546875,9809.1005859375,4715.37158203125,1546.50732421875,-9818.1005859375,-4896.46728515625,-4815.10986328125,-4952.99267578125,-925.7042846679688,3664.593505859375,3795.03564453125,-5.699999809265137,-18.0,-4304.34912109375,-5174.8720703125,-17.399999618530273,-8164.27734375,4968.44482421875,2747.9052734375,0.0
0,0.63671875,-558.9000244140625,-423.1161804199219,-6276.2421875,8916.9658203125,9823.5,6576.2978515625,9685.166015625,-848.0066528320312,-12077.486328125,3416.0205078125,8033.884765625,4204.06689453125,-9345.98828125,-9349.103515625,-7659.14453125,-4915.03955078125,-5.699999809265137,-17.399999618530273,9816.2998046875,9599.2109375,-16.799999237060547,7276.28173828125,-8773.5654296875,-8255.69921875,0.0
0,0.639892578125,-4265.39990234375,-5081.8955078125,-9828.900390625,3341.12744140625,7049.4638671875,920.3157348632812,9809.1005859375,-6248.24951171875,-14286.7822265625,9817.7998046875,5592.5400390625,5028.494140625,-2804.486328125,-6061.30908203125,-9224.4189453125,-6822.77197265625,-5.699999809265137,-17.100000381469727,-1885.249755859375,9825.2998046875,-17.399999618530273,9836.69921875,-9306.59375,-7096.857421875,0.0
0,0.643310546875,-3766.5,-4997.87255859375,-5407.27490234375,-6822.8046875,-6953.228515625,-6211.23095703125,9809.1005859375,-5276.3193359375,-5302.31103515625,5790.54541015625,-2698.32861328125,2079.82470703125,6754.7626953125,3632.347412109375,-1147.20849609375,-1920.050048828125,-6.0,-17.399999618530273,-9816.6005859375,-2471.0927734375,-17.399999618530273,-158.80654907226562,968.7883911132812,2196.646484375,0.0
0,0.646728515625,-93.30000305175781,-744.8045043945312,8366.0234375,-9819.900390625,-9823.80078125,-5416.90380859375,9618.7080078125,1685.53662109375,5891.45654296875,-9373.7568359375,-9814.5,-6015.8857421875,5609.87255859375,7753.7861328125,8329.548828125,5740.6220703125,-5.699999809265137,-17.700000762939453,-9816.6005859375,-9825.6005859375,-17.100000381469727,-9837.0,9806.7001953125,9626.3564453125,0.0
0,0.64990234375,2791.5,3161.3681640625,8633.8828125,-972.7598876953125,-2439.161376953125,2778.945556640625,9809.1005859375,5327.8046875,2209.296142578125,-9818.1005859375,-4287.25439453125,-4744.58154296875,-4234.62451171875,-205.11231994628906,4521.40380859375,4300.359375,-5.099999904632568,-18.0,-3256.422119140625,-5093.61181640625,-17.399999618530273,-8174.484375,5302.7470703125,3180.523681640625,0.0
0,0.6533203125,251.6999969482422,516.7418823242188,-5435.7705078125,9819.599609375,9823.5,6695.08740234375,9019.990234375,-119.13400268554688,-11193.767578125,3498.11767578125,8914.458984375,4414.45068359375,-8672.912109375,-8728.369140625,-6916.8154296875,-4373.6640625,-5.099999904632568,-17.399999618530273,9816.2998046875,9620.201171875,-17.700000762939453,7263.67333984375,-8569.751953125,-7794.9189453125,0.0
0,0.65673828125,-3909.60009765625,-4506.63720703125,-9828.900390625,3785.55224609375,7086.33935546875,1030.1055908203125,9809.1005859375,-5916.88916015625,-14213.138671875,9817.7998046875,5933.3876953125,5043.7998046875,-2288.580810546875,-5737.14794921875,-9200.14453125,-6640.41064453125,-5.699999809265137,-17.100000381469727,-686.3351440429688,9825.2998046875,-17.100000381469727,9836.69921875,-9415.8330078125,-7105.24609375,0.0
0,0.659912109375,-1660.5,-2541.998046875,-2637.497314453125,-4299.5029296875,-5406.86767578125,-6166.53564453125,-2904.38232421875,-3599.46337890625,-1693.7938232421875,5862.15576171875,-847.3272705078125,2832.523193359375,8187.900390625,5638.7900390625,1620.4168701171875,-298.3272705078125,-5.400000095367432,-17.399999618530273,-9816.6005859375,-2274.388916015625,-16.799999237060547,-139.29345703125,2105.177001953125,4010.108154296875,0.0
0,0.663330078125,3471.0,3303.007080078125,9828.599609375,-7398.7890625,-9823.80078125,-5093.23388671875,-9809.400390625,4608.8095703125,11561.9833984375,-9350.685546875,-8855.7529296875,-4220.27392578125,8746.3984375,9825.8994140625,9819.900390625,8577.5849609375,-5.699999809265137,-17.399999618530273,-9816.6005859375,-9825.6005859375,-17.100000381469727,-9837.0,9806.7001953125,9816.900390625,0.0
0,0.666748046875,5461.7998046875,6297.22900390625,9561.3408203125,2491.835693359375,101.9315185546875,2981.126953125,-9531.2958984375,7610.806640625,7069.748046875,-9818.1005859375,-1771.929443359375,-3299.208251953125,-848.8445434570312,3067.98876953125,7594.1123046875,6517.234375,-5.099999904632568,-17.399999618530273,-756.7362060546875,-4835.73779296875,-17.100000381469727,-8163.0771484375,6595.662109375,5681.26123046875,0.0
0,0.669921875,2824.5,3475.554443359375,-2501.6181640625,9819.599609375,9823.5,7200.24072265625,-9794.1318359375,2109.98876953125,-6996.1044921875,3535.27099609375,9814.2001953125,5963.36474609375,-5779.04150390625,-6218.4423828125,-4205.53173828125,-2213.27001953125,-6.300000190734863,-17.399999618530273,9816.2998046875,9702.359375,-17.700000762939453,7276.58251953125,-8123.2177734375,-5882.291015625,0.0
0,0.67333984375,-1295.0999755859375,-1635.4490966796875,-9828.900390625,6352.0078125,8475.0068359375,1576.355712890625,-9809.400390625,-3645.260986328125,-9647.259765625,9817.7998046875,8101.87451171875,6689.65283203125,593.59130859375,-2831.389892578125,-6086.07861328125,-4382.97802734375,-5.699999809265137,-17.399999618530273,1825.034423828125,9825.2998046875,-17.100000381469727,9836.69921875,-8504.208984375,-4664.12841796875,0.0
0,0.6767578125,-1297.199951171875,-2130.88525390625,-2000.3946533203125,-4047.172607421875,-4688.25,-5625.0849609375,-9596.85546875,-3048.992431640625,-883.718505859375,5877.13720703125,1.4975738525390625,3616.734375,9273.7021484375,6230.73681640625,1822.107421875,221.71755981445312,-5.699999809265137,-17.399999618530273,-9816.6005859375,-1931.3565673828125,-17.399999618530273,-117.678955078125,2641.796630859375,4300.1181640625,0.0
0,0.679931640625,2126.39990234375,1832.0030517578125,9194.4970703125,-8830.05859375,-9823.80078125,-4930.6484375,-9809.400390625,3628.19921875,9868.1904296875,-9342.2958984375,-9451.48828125,-4639.23974609375,7857.06103515625,9624.685546875,9819.900390625,7663.3759765625,-5.099999904632568,-17.100000381469727,-9816.6005859375,-9825.6005859375,-16.799999237060547,-9837.0,9806.7001953125,9816.900390625,0.0
0,0.683349609375,4503.0,5312.05859375,9471.955078125,1340.4666748046875,-721.6151733398438,3146.411865234375,-9529.5,6944.7939453125,6038.7431640625,-9818.1005859375,-2443.14208984375,-3671.35595703125,-2042.9259033203125,1925.77685546875,6660.2822265625,5835.55810546875,-5.400000095367432,-17.700000762939453,-476.62994384765625,-4930.19140625,-17.399999618530273,-8161.8759765625,6077.89794921875,4650.64697265625,0.0
0,0.6865234375,1811.0999755859375,2448.072021484375,-3555.6572265625,9819.599609375,9823.5,7129.7470703125,-9809.400390625,1338.3118896484375,-7879.8232421875,3640.439208984375,9814.2001953125,5297.1005859375,-6808.15283203125,-7167.8359375,-5328.46533203125,-2997.993896484375,-5.699999809265137,-17.700000762939453,9816.2998046875,9633.09375,-17.399999618530273,7275.98193359375,-8369.8291015625,-6834.11083984375,0.0
0,0.68994140625,-2229.300048828125,-2568.705322265625,-9828.900390625,5560.55419921875,8084.96826171875,1531.959716796875,-9508.84375,-4423.22412109375,-10678.2646484375,9817.7998046875,7762.82373046875,6074.10888671875,-506.60723876953125,-3878.842041015625,-7164.3583984375,-5118.13037109375,-6.0,-17.399999618530273,2624.6103515625,9825.2998046875,-17.399999618530273,9836.69921875,-8898.966796875,-5683.95751953125,0.0
0,0.693359375,-2022.5999755859375,-2851.983154296875,-2706.786865234375,-4776.29296875,-5326.521484375,-5742.3740234375,-9809.400390625,-3639.274169921875,-1767.43701171875,5953.2421875,-637.06787109375,3068.11669921875,8648.31640625,5384.49853515625,981.7802124023438,-432.9200439453125,-6.0,-17.700000762939453,-9737.51171875,-2162.24365234375,-17.399999618530273,-117.37875366210938,1929.49609375,3457.95068359375,0.0
0,0.696533203125,1363.199951171875,1034.384033203125,8963.2314453125,-9519.919921875,-9823.80078125,-5100.7333984375,-9809.400390625,3058.271728515625,9131.7578125,-9320.7236328125,-9774.0654296875,-5267.0888671875,7392.14599609375,9310.4208984375,9690.4345703125,6910.197265625,-5.699999809265137,-17.399999618530273,-9816.6005859375,-9825.6005859375,-17.399999618530273,-9837.0,9806.7001953125,9816.900390625,0.0
0,0.699951171875,3652.800048828125,4406.41015625,9009.125,278.7019958496094,-1585.6346435546875,2894.135009765625,-6789.76416015625,6235.3779296875,4860.45166015625,-9818.1005859375,-3141.011474609375,-4538.39990234375,-3245.105712890625,544.8670654296875,5474.4140625,5035.81298828125,-5.400000095367432,-17.700000762939453,250.4479217529297,-4997.3583984375,-17.700000762939453,-8168.78076171875,5326.98974609375,3394.43603515625,0.0
0,0.703369140625,-1887.0,-1588.336181640625,-6821.55908203125,7326.56591796875,9823.5,6554.69970703125,9809.1005859375,-1759.172119140625,-13403.0634765625,3596.99365234375,7450.13037109375,2790.506591796875,-9828.6005859375,-9826.2001953125,-8555.8134765625,-6096.33154296875,-5.699999809265137,-17.100000381469727,9816.2998046875,9583.6181640625,-17.399999618530273,7258.26953125,-9224.8896484375,-9263.544921875,0.0
0,0.70654296875,-5283.89990234375,-5936.83056640625,-9828.900390625,2374.96044921875,6443.87109375,851.3220825195312,9056.51171875,-7045.36962890625,-15244.1435546875,9817.7998046875,5223.53759765625,3738.882568359375,-4236.72412109375,-7135.75,-9653.2734375,-7773.6337890625,-5.400000095367432,-17.700000762939453,1874.1654052734375,9825.2998046875,-17.399999618530273,9836.69921875,-9496.3408203125,-8187.69140625,0.0
0,0.7099609375,-4977.60009765625,-6030.15576171875,-6295.13916015625,-7927.42333984375,-7795.36279296875,-6387.01513671875,9809.1005859375,-6228.4931640625,-6259.67236328125,5901.10693359375,-3531.279052734375,783.0105590820312,5270.634765625,2075.712890625,-2726.86767578125,-3028.637939453125,-6.0,-17.100000381469727,-9804.017578125,-2889.088623046875,-17.100000381469727,-182.22225952148438,-432.1688232421875,368.2049255371094,0.0
0,0.71337890625,-809.0999755859375,-1273.5496826171875,8194.1494140625,-9819.900390625,-9823.80078125,-5405.8046875,9435.7998046875,1146.7396240234375,5081.38134765625,-9339.599609375,-9814.5,-6932.74951171875,4493.77734375,6728.22412109375,7422.390625,4976.6279296875,-5.699999809265137,-17.399999618530273,-9816.6005859375,-9825.6005859375,-17.100000381469727,-9837.0,9806.7001953125,8467.814453125,0.0
0,0.716552734375,1966.800048828125,2559.702880859375,8307.5322265625,-1835.8370361328125,-3095.12060546875,2629.859375,9809.1005859375,4636.6474609375,1546.50732421875,-9818.1005859375,-4561.310546875,-5914.74560546875,-5454.5009765625,-1341.62646484375,3448.817626953125,3466.6650390625,-5.400000095367432,-18.0,509.5836181640625,-5322.10009765625,-16.799999237060547,-8192.1962890625,4223.82177734375,1459.0382080078125,0.0
0,0.719970703125,-560.0999755859375,-90.62488555908203,-5836.50927734375,8997.5791015625,9823.5,6464.408203125,9678.87890625,-925.2341918945312,-12003.8427734375,3557.443115234375,8493.640625,2989.78564453125,-9828.6005859375,-9492.142578125,-7801.79638671875,-5300.19140625,-5.699999809265137,-17.100000381469727,9816.2998046875,9558.4296875,-17.399999618530273,7232.45263671875,-9046.21484375,-8933.9873046875,0.0
0,0.723388671875,-4372.7998046875,-4780.0126953125,-9828.900390625,3330.638671875,6906.759765625,759.8304443359375,9809.1005859375,-6396.41845703125,-14360.42578125,9817.7998046875,5820.77001953125,3728.07861328125,-3523.754638671875,-6501.22119140625,-9399.1376953125,-7255.3916015625,-5.699999809265137,-17.100000381469727,3889.1328125,9825.2998046875,-17.399999618530273,9836.69921875,-9551.41015625,-7998.0458984375,0.0
0,0.7265625,-3774.300048828125,-4748.20361328125,-4939.0458984375,-6723.01171875,-7140.302734375,-6371.71630859375,9809.1005859375,-5386.7724609375,-5228.66796875,5896.3134765625,-2420.079345703125,1017.4034423828125,6137.17578125,3120.166259765625,-1456.4871826171875,-2275.458984375,-6.0,-17.399999618530273,-9333.6787109375,-2752.6552734375,-17.399999618530273,-245.56475830078125,57.462890625,975.4883422851562,0.0
0,0.72998046875,52.20000076293945,-286.8787536621094,8618.5849609375,-9819.900390625,-9823.80078125,-5422.00341796875,9607.6318359375,1718.463134765625,5965.099609375,-9337.8017578125,-9814.5,-6830.4091796875,5120.9619140625,7414.63037109375,8180.30322265625,5526.71533203125,-5.699999809265137,-17.399999618530273,-9816.6005859375,-9825.6005859375,-17.100000381469727,-9837.0,9806.7001953125,8793.1767578125,0.0
0,0.7333984375,2736.0,3502.561767578125,8850.1494140625,-855.2854614257812,-2622.637939453125,2621.760009765625,9809.1005859375,5189.51318359375,2430.225830078125,-9818.1005859375,-4080.888671875,-5897.3388671875,-4878.6064453125,-680.1093139648438,4279.25537109375,3885.164794921875,-5.400000095367432,-17.399999618530273,1963.4398193359375,-5260.63037109375,-17.399999618530273,-8221.9169921875,4505.4501953125,1779.008056640625,0.0
0,0.736572265625,482.1000061035156,1084.7978515625,-4827.1630859375,9819.599609375,9823.5,6766.48046875,9009.212890625,-17.95989990234375,-11120.1240234375,3570.92626953125,9449.69140625,3493.085205078125,-9117.4296875,-8992.8564453125,-6988.44140625,-4619.11572265625,-5.400000095367432,-17.399999618530273,9816.2998046875,9575.22265625,-17.399999618530273,7189.52392578125,-8856.767578125,-8578.96484375,0.0
0,0.739990234375,-3849.0,-4115.93017578125,-9828.900390625,4001.321533203125,6997.8984375,910.7166137695312,9809.1005859375,-5880.37060546875,-14065.8525390625,9817.7998046875,6205.3466796875,4000.88671875,-2978.154541015625,-6235.83447265625,-9371.2666015625,-6963.97412109375,-5.699999809265137,-17.700000762939453,5346.88330078125,9825.2998046875,-17.700000762939453,9836.69921875,-9651.9697265625,-8057.06640625,0.0
0,0.743408203125,-1517.0999755859375,-2017.15380859375,-1911.6082763671875,-4006.116455078125,-5480.91796875,-6152.4365234375,-3146.86328125,-3431.23876953125,-1472.8641357421875,5836.08837890625,-499.59063720703125,2056.41552734375,7997.7353515625,5359.60888671875,1543.39697265625,-544.3796997070312,-6.0,-18.0,-8741.412109375,-2530.4638671875,-17.700000762939453,-351.8360595703125,1406.3443603515625,2888.716064453125,0.0
0,0.74658203125,3503.10009765625,3693.1142578125,9828.599609375,-7289.40576171875,-9823.80078125,-5171.2265625,-9809.400390625,4692.02392578125,11488.33984375,-9367.7646484375,-8651.783203125,-5119.43017578125,8437.7548828125,9825.8994140625,9819.900390625,8199.04296875,-6.0,-17.399999618530273,-9816.6005859375,-9825.6005859375,-17.399999618530273,-9837.0,9806.7001953125,9816.900390625,0.0
0,0.75,5550.60009765625,6723.9462890625,9699.619140625,2707.00537109375,27.881267547607422,2938.531005859375,-9559.435546875,7725.75048828125,7217.0341796875,-9818.1005859375,-1326.5509033203125,-4300.10498046875,-1570.512451171875,2623.278564453125,7490.419921875,6165.73095703125,-5.400000095367432,-17.399999618530273,4324.12158203125,-4966.173828125,-17.100000381469727,-8245.33203125,6022.23095703125,4517.0263671875,0.0
0,0.75341796875,3072.300048828125,3989.29541015625,-1720.2374267578125,9819.599609375,9823.5,7298.33154296875,-9776.1708984375,2356.3388671875,-6996.1044921875,3533.77294921875,9814.2001953125,5305.80419921875,-6242.7568359375,-6527.31005859375,-4355.07666015625,-2501.68310546875,-6.0,-18.0,9816.2998046875,9667.876953125,-17.700000762939453,7161.9052734375,-8413.5244140625,-6890.1357421875,0.0
0,0.756591796875,-1086.9000244140625,-1107.9041748046875,-9790.505859375,6555.7900390625,8416.5458984375,1650.14892578125,-9809.400390625,-3408.48974609375,-9499.9736328125,9817.7998046875,8397.4951171875,6007.18212890625,-29.694562911987305,-3221.22314453125,-6174.18701171875,-4640.4462890625,-5.699999809265137,-17.399999618530273,7463.7080078125,9825.2998046875,-17.100000381469727,9836.69921875,-8845.9921875,-5727.09912109375,0.0
0,0.760009765625,-1248.300048828125,-1711.9700927734375,-1370.19091796875,-3932.99462890625,-4805.4716796875,-5751.97314453125,-9592.064453125,-2980.14599609375,-883.718505859375,5849.87158203125,283.04144287109375,2525.201416015625,8766.494140625,5676.57373046875,1515.8255615234375,-301.0311584472656,-6.0,-17.700000762939453,-7153.34375,-2229.410888671875,-17.399999618530273,-458.10736083984375,1776.26171875,3118.5068359375,0.0
0,0.763427734375,2166.300048828125,2214.0078125,9364.5712890625,-8777.9140625,-9823.80078125,-5040.73876953125,-9809.400390625,3717.39990234375,10089.119140625,-9359.974609375,-9402.068359375,-5669.54833984375,7404.44384765625,9394.384765625,9819.900390625,7175.1767578125,-5.400000095367432,-17.399999618530273,-9816.6005859375,-9825.6005859375,-17.399999618530273,-9837.0,9806.7001953125,9816.900390625,0.0
0,0.7666015625,4644.2998046875,5671.857421875,9596.134765625,1432.1685791015625,-676.9452514648438,3105.91552734375,-9530.6962890625,7048.36279296875,6112.3857421875,-9818.1005859375,-2239.17236328125,-4546.50341796875,-2805.986083984375,1317.0369873046875,6424.42724609375,5445.89990234375,-5.400000095367432,-17.700000762939453,4624.59912109375,-5005.7548828125,-17.100000381469727,-8273.8505859375,5666.67919921875,3653.88720703125,0.0
0,0.77001953125,2143.800048828125,3050.337646484375,-2817.77001953125,9819.599609375,9823.5,7365.2255859375,-9809.400390625,1715.17041015625,-7732.53662109375,3532.574462890625,9814.2001953125,4979.57470703125,-7234.974609375,-7406.234375,-5374.9169921875,-3118.466552734375,-5.699999809265137,-17.399999618530273,9816.2998046875,9631.294921875,-17.399999618530273,7141.19140625,-8511.3916015625,-7511.50048828125,0.0
0,0.773193359375,-2066.699951171875,-2100.876953125,-9828.900390625,5677.1298828125,8086.46728515625,1636.9500732421875,-9512.13671875,-4099.646484375,-10383.69140625,9817.7998046875,7839.2001953125,5581.61328125,-1098.3988037109375,-4278.271484375,-7295.322265625,-5408.947265625,-5.699999809265137,-17.399999618530273,7384.3193359375,9825.2998046875,-17.100000381469727,9836.69921875,-9080.03515625,-6430.5537109375,0.0
0,0.776611328125,-1840.800048828125,-2328.939453125,-2035.4893798828125,-4584.1982421875,-5255.16943359375,-5697.6787109375,-9809.400390625,-3399.21044921875,-1399.220947265625,5834.59033203125,-305.20556640625,2345.1298828125,8117.71337890625,5003.96142578125,780.0897827148438,-718.328857421875,-5.400000095367432,-17.100000381469727,-7038.005859375,-2299.87646484375,-17.100000381469727,-477.32025146484375,1408.14013671875,2593.912109375,0.0
0,0.780029296875,1587.9000244140625,1524.118408203125,9121.6083984375,-9368.58203125,-9823.80078125,-4933.6484375,-9809.400390625,3261.517822265625,9426.330078125,-9367.1650390625,-9640.4814453125,-5853.22119140625,6866.642578125,9038.13671875,9663.462890625,6688.17919921875,-5.699999809265137,-17.399999618530273,-9816.6005859375,-9825.6005859375,-17.399999618530273,-9837.0,9806.7001953125,9793.8310546875,0.0
0,0.783203125,3737.39990234375,4764.7080078125,9102.7099609375,422.5481872558594,-1467.5140380859375,2978.127197265625,-6756.53564453125,6298.8359375,5007.73779296875,-9818.1005859375,-3079.01171875,-4903.64501953125,-3743.314453125,170.3271942138672,5247.54931640625,4746.49853515625,-5.699999809265137,-17.100000381469727,4152.76220703125,-5044.73583984375,-17.100000381469727,-8272.0498046875,4990.29296875,2641.84765625,0.0
0,0.78662109375,-1713.9000244140625,-1089.8992919921875,-6547.40087890625,7579.49560546875,9823.5,6781.47900390625,9809.1005859375,-1579.87255859375,-13255.77734375,3493.323486328125,7787.3837890625,2615.537353515625,-9828.6005859375,-9826.2001953125,-8574.0947265625,-6274.787109375,-5.699999809265137,-17.399999618530273,9816.2998046875,9582.119140625,-17.700000762939453,7138.18896484375,-9303.6005859375,-9388.7763671875,0.0
0,0.7900390625,-5256.0,-5493.6083984375,-9828.900390625,2487.64013671875,6506.22900390625,925.415283203125,9054.1171875,-6841.22509765625,-15096.857421875,9817.7998046875,5332.8603515625,3507.19091796875,-4710.33740234375,-7338.76318359375,-9743.1796875,-8047.62646484375,-5.699999809265137,-17.399999618530273,5707.57666015625,9825.2998046875,-17.700000762939453,9836.69921875,-9603.185546875,-8586.1552734375,0.0
0,0.793212890625,-4812.89990234375,-5517.615234375,-5910.29833984375,-7781.779296875,-7705.72314453125,-6305.72265625,9809.1005859375,-5975.857421875,-6259.67236328125,5828.59814453125,-3252.13134765625,546.8168334960938,4911.900390625,1906.8848876953125,-2871.317626953125,-3216.707275390625,-6.300000190734863,-17.399999618530273,-8605.103515625,-2901.6826171875,-17.399999618530273,-519.3484497070312,-745.5211181640625,-290.6092529296875,0.0
0,0.796630859375,-712.2000122070312,-854.6347045898438,8373.8212890625,-9819.900390625,-9823.80078125,-5341.61083984375,9436.9970703125,1342.203125,5081.38134765625,-9362.3701171875,-9814.5,-6953.1572265625,4155.73876953125,6561.1953125,7252.466796875,4802.6787109375,-6.0,-17.700000762939453,-9816.6005859375,-9825.6005859375,-17.100000381469727,-9837.0,9806.7001953125,8009.130859375,0.0
0,0.800048828125,1970.0999755859375,2907.1982421875,8367.822265625,-1662.6221923828125,-2947.91943359375,2672.75537109375,9809.1005859375,4741.1142578125,1472.8641357421875,-9818.1005859375,-4524.17041015625,-5858.3232421875,-5726.55126953125,-1439.0848388671875,3271.102294921875,3249.754638671875,-5.400000095367432,-17.399999618530273,2371.765869140625,-5291.81494140625,-17.399999618530273,-8267.8466796875,4151.69384765625,1143.862060546875,0.0
0,0.80322265625,-362.70001220703125,406.61163330078125,-5615.44287109375,9258.8994140625,9823.5,6709.48583984375,9679.1787109375,-573.8187866210938,-12003.8427734375,3562.536865234375,8684.4306640625,3384.14208984375,-9828.6005859375,-9463.6552734375,-7784.41455078125,-5300.19140625,-5.699999809265137,-17.100000381469727,9816.2998046875,9572.5234375,-17.700000762939453,7157.40234375,-9029.75390625,-8998.4013671875,0.0
0,0.806640625,-4253.10009765625,-4297.47998046875,-9828.900390625,3588.363037109375,7045.8662109375,932.91455078125,9809.1005859375,-6145.279296875,-14139.49609375,9817.7998046875,6094.22705078125,4054.307861328125,-3628.135498046875,-6423.8544921875,-9415.3203125,-7270.11279296875,-6.0,-17.399999618530273,5826.80859375,9825.2998046875,-17.399999618530273,9836.69921875,-9592.7109375,-8093.9169921875,0.0
0,0.81005859375,-3669.89990234375,-4235.06298828125,-4644.791015625,-6447.60595703125,-6910.95703125,-6206.431640625,9809.1005859375,-5133.23876953125,-5228.66796875,5916.9873046875,-2318.843505859375,1041.4129638671875,6065.7890625,3195.734130859375,-1456.4871826171875,-2316.01708984375,-5.699999809265137,-17.100000381469727,-8350.162109375,-2667.796875,-17.100000381469727,-474.3182373046875,-53.27288818359375,684.8790893554688,0.0
0,0.813232421875,157.1999969482422,19.20527458190918,8685.1748046875,-9819.900390625,-9823.80078125,-5266.91748046875,9611.5234375,1932.1859130859375,6112.3857421875,-9331.509765625,-9814.5,-6527.888671875,5131.76025390625,7448.81640625,8111.6748046875,5466.93017578125,-6.0,-17.399999618530273,-9816.6005859375,-9825.6005859375,-17.399999618530273,-9837.0,9806.7001953125,8634.390625,0.0
0,0.816650390625,2761.199951171875,3751.630126953125,8851.349609375,-672.1812744140625,-2368.40869140625,2764.246826171875,9809.1005859375,5417.00537109375,2282.939453125,-9818.1005859375,-4065.613525390625,-5278.79345703125,-4824.6162109375,-557.4617309570312,4192.345703125,3959.67138671875,-5.400000095367432,-17.399999618530273,2491.896728515625,-5158.9794921875,-17.700000762939453,-8246.232421875,4575.482421875,1837.429443359375,0.0
0,0.820068359375,364.79998779296875,1226.436767578125,-4949.24462890625,9819.599609375,9823.5,6807.87646484375,9012.505859375,23.647201538085938,-11120.1240234375,3545.7578125,9303.52734375,3824.716796875,-9168.12109375,-9006.3505859375,-7085.24072265625,-4614.609375,-5.699999809265137,-17.700000762939453,9816.2998046875,9611.5048828125,-17.399999618530273,7185.02099609375,-8824.1455078125,-8574.171875,0.0
0,0.8232421875,-3777.89990234375,-3933.18017578125,-9828.900390625,3897.032958984375,7261.12158203125,1012.4072875976562,9809.1005859375,-5790.27197265625,-14065.8525390625,9817.7998046875,6890.9365234375,5062.107421875,-2876.773193359375,-6054.412109375,-9418.017578125,-6895.17578125,-5.699999809265137,-17.399999618530273,6591.93359375,9825.2998046875,-17.399999618530273,9836.69921875,-9653.1669921875,-8014.82373046875,0.0
0,0.82666015625,-1510.5,-1957.1373291015625,-2026.49072265625,-4152.060546875,-5079.1875,-6208.53173828125,-3066.33544921875,-3426.748779296875,-1472.8641357421875,5955.63916015625,-64.09616088867188,2411.756591796875,7809.06982421875,5336.81884765625,1373.473388671875,-592.1481323242188,-6.0,-17.700000762939453,-7187.79541015625,-2369.142578125,-17.399999618530273,-407.67352294921875,1253.4093017578125,2693.977783203125,0.0
0,0.830078125,3732.0,3778.9375,9828.599609375,-7050.56103515625,-9823.80078125,-5025.14013671875,-9809.400390625,4890.181640625,11561.9833984375,-9303.64453125,-9067.2109375,-5431.5537109375,8627.6201171875,9825.8994140625,9819.900390625,8322.8212890625,-5.400000095367432,-17.399999618530273,-9816.6005859375,-9825.6005859375,-17.100000381469727,-9837.0,9806.7001953125,9816.900390625,0.0
0,0.833251953125,5727.2998046875,6739.25048828125,9615.33203125,2915.882080078125,220.05215454101562,3034.822265625,-9550.455078125,7813.1552734375,7143.39111328125,-9818.1005859375,-1746.7701416015625,-3334.322265625,-1347.953125,2828.69091796875,7348.6669921875,6190.96728515625,-6.0,-17.399999618530273,4390.328125,-4871.419921875,-17.399999618530273,-8210.5087890625,6138.0546875,4719.55419921875,0.0
0,0.836669921875,3156.0,4087.122314453125,-1982.0975341796875,9819.599609375,9823.5,7445.318359375,-9781.2607421875,2451.5263671875,-6922.46142578125,3629.0537109375,9814.2001953125,5269.18994140625,-6202.26416015625,-6248.42919921875,-4200.73681640625,-2157.089599609375,-5.699999809265137,-17.100000381469727,9816.2998046875,9691.5654296875,-17.100000381469727,7221.044921875,-8345.8857421875,-6521.630859375,0.0
0,0.840087890625,-990.9000244140625,-1077.89599609375,-9828.900390625,6707.7275390625,8481.9013671875,1705.9437255859375,-9809.400390625,-3365.086669921875,-9573.6171875,9817.7998046875,8163.8740234375,6199.25830078125,197.0639190673828,-2890.464599609375,-6152.90869140625,-4443.66455078125,-6.300000190734863,-17.100000381469727,7152.74462890625,9825.2998046875,-17.100000381469727,9836.69921875,-8751.119140625,-5408.328125,0.0
0,0.84326171875,-1016.7000122070312,-1558.6279296875,-1344.9947509765625,-3650.99609375,-4506.572265625,-5691.37890625,-9591.765625,-2796.05712890625,-883.718505859375,5982.30517578125,-109.32289123535156,3135.943603515625,8926.365234375,5988.140625,1596.7415771484375,-132.48976135253906,-5.699999809265137,-17.399999618530273,-7329.19677734375,-2085.781005859375,-17.100000381469727,-407.3733215332031,1982.17041015625,3201.495361328125,0.0
0,0.8466796875,2380.199951171875,2264.12158203125,9351.6728515625,-8564.2431640625,-9823.80078125,-4858.35498046875,-9809.400390625,3848.806396484375,9941.8330078125,-9300.6484375,-9505.7001953125,-5212.1669921875,7583.8115234375,9548.5185546875,9819.900390625,7565.736328125,-5.699999809265137,-17.100000381469727,-9816.6005859375,-9825.6005859375,-17.399999618530273,-9837.0,9806.7001953125,9816.900390625,0.0
0,0.85009765625,4681.5,5553.32470703125,9516.0478515625,1486.41064453125,-675.4462280273438,3107.41552734375,-9529.5,6994.7822265625,6112.3857421875,-9818.1005859375,-2863.660888671875,-4148.845703125,-2521.038330078125,1609.412109375,6435.515625,5556.45849609375,-5.400000095367432,-17.700000762939453,1482.316162109375,-4941.5859375,-17.100000381469727,-8233.6240234375,5775.0205078125,4029.58203125,0.0
0,0.853271484375,2103.89990234375,2733.450439453125,-3249.7041015625,9819.599609375,9823.5,7272.833984375,-9809.400390625,1520.904296875,-7879.8232421875,3551.1513671875,9814.2001953125,5471.77001953125,-7050.208984375,-7286.28564453125,-5410.58056640625,-3074.904052734375,-5.699999809265137,-17.399999618530273,9816.2998046875,9642.388671875,-17.399999618530273,7197.9296875,-8511.3916015625,-7363.798828125,0.0
0,0.856689453125,-1980.9000244140625,-2341.843017578125,-9828.900390625,5748.45361328125,8105.3544921875,1554.7576904296875,-9516.92578125,-4248.4140625,-10604.6220703125,9817.7998046875,7710.109375,5354.7236328125,-1020.7130737304688,-4144.82861328125,-7161.9609375,-5226.28515625,-6.0,-17.399999618530273,5479.29736328125,9825.2998046875,-17.100000381469727,9836.69921875,-9075.5458984375,-6226.228515625,0.0
0,0.85986328125,-1760.4000244140625,-2476.579833984375,-2308.44775390625,-4491.59716796875,-5222.4912109375,-5752.27294921875,-9809.400390625,-3492.302734375,-1767.43701171875,5958.9345703125,-615.8023681640625,2372.140625,8128.81103515625,5077.7294921875,839.4281005859375,-628.8006591796875,-5.699999809265137,-17.100000381469727,-8405.8837890625,-2295.978515625,-17.399999618530273,-387.5600280761719,1394.6722412109375,2560.656982421875,0.0
0,0.86328125,1636.5,1407.386474609375,9073.3154296875,-9408.140625,-9823.80078125,-5017.640625,-9809.400390625,3190.576171875,9352.6875,-9303.943359375,-9767.1767578125,-5498.1806640625,6986.32080078125,9144.591796875,9696.728515625,6828.78076171875,-5.699999809265137,-17.100000381469727,-9816.6005859375,-9825.6005859375,-17.100000381469727,-9837.0,9806.7001953125,9816.900390625,0.0
0,0.86669921875,3877.5,4618.56787109375,9000.7255859375,352.12347412109375,-1471.4114990234375,3000.025390625,-6658.04638671875,6304.22412109375,4934.09521484375,-9818.1005859375,-3448.91259765625,-4851.423828125,-3694.12353515625,367.6428527832031,5393.498046875,4956.19873046875,-5.400000095367432,-17.399999618530273,1193.5220947265625,-5036.939453125,-17.100000381469727,-8238.126953125,5138.439453125,2886.01953125,0.0
0,0.869873046875,-1689.0,-1422.0904541015625,-6815.56005859375,7494.6865234375,9823.5,6659.09033203125,9809.1005859375,-1616.9896240234375,-13476.70703125,3486.432373046875,7054.47119140625,2835.824462890625,-9828.6005859375,-9826.2001953125,-8574.3935546875,-6119.76513671875,-5.400000095367432,-17.700000762939453,9816.2998046875,9576.4208984375,-17.399999618530273,7178.41650390625,-9269.1826171875,-9364.80859375,0.0
0,0.873291015625,-5091.89990234375,-5694.0634765625,-9828.900390625,2523.9013671875,6423.7841796875,989.9093627929688,9047.830078125,-6852.0009765625,-15244.1435546875,9817.7998046875,4853.63671875,3654.54931640625,-4600.857421875,-7207.71923828125,-9675.4501953125,-7731.2734375,-5.699999809265137,-17.700000762939453,3330.11865234375,9825.2998046875,-17.399999618530273,9836.69921875,-9559.490234375,-8465.1181640625,0.0
0,0.876708984375,-4738.5,-5656.85302734375,-6137.36328125,-7738.02587890625,-7822.3447265625,-6281.4248046875,9809.1005859375,-6006.6884765625,-6554.2451171875,5875.63916015625,-3841.27685546875,-7.803094863891602,4810.21923828125,1964.160400390625,-2763.1298828125,-3095.333251953125,-5.699999809265137,-17.700000762939453,-9392.6962890625,-3060.60498046875,-17.399999618530273,-453.904541015625,-769.4639892578125,-325.3625183105469,0.0
0,0.8798828125,-518.7000122070312,-929.6552734375,8307.232421875,-9819.900390625,-9823.80078125,-5314.61328125,9441.1884765625,1376.3270263671875,5007.73779296875,-9338.1015625,-9814.5,-7192.65234375,4066.655029296875,6615.47216796875,7365.44970703125,4995.5546875,-5.400000095367432,-17.399999618530273,-9816.6005859375,-9825.6005859375,-17.399999618530273,-9837.0,9806.7001953125,8005.53564453125,0.0
0,0.88330078125,2184.300048828125,2710.044189453125,8216.646484375,-1717.1639404296875,-2991.98974609375,2694.053466796875,9809.1005859375,4834.80517578125,1399.220947265625,-9818.1005859375,-4697.58984375,-5623.6298828125,-5752.9462890625,-1385.707763671875,3410.157958984375,3509.326416015625,-5.699999809265137,-17.399999618530273,629.4151611328125,-5324.798828125,-17.399999618530273,-8271.4501953125,4252.25390625,1350.5841064453125,0.0
0,0.88671875,-273.6000061035156,63.017303466796875,-5874.00341796875,9107.861328125,9823.5,6737.38330078125,9677.9814453125,-625.3038330078125,-12077.486328125,3378.267822265625,8409.7763671875,3342.425537109375,-9828.6005859375,-9436.966796875,-7765.83349609375,-5189.63330078125,-5.699999809265137,-17.399999618530273,9816.2998046875,9576.1220703125,-17.700000762939453,7138.18896484375,-9027.66015625,-8917.8095703125,0.0
0,0.889892578125,-4249.7998046875,-4802.51904296875,-9828.900390625,3329.14013671875,6989.50439453125,806.9261474609375,9809.1005859375,-6350.3212890625,-14360.42578125,9817.7998046875,5576.36572265625,3932.159423828125,-3910.384033203125,-6619.97021484375,-9394.0419921875,-7228.052734375,-6.0,-17.700000762939453,3926.879638671875,9825.2998046875,-17.399999618530273,9836.69921875,-9578.345703125,-8096.61328125,0.0
0,0.893310546875,-3574.800048828125,-4511.73876953125,-4892.853515625,-6578.26611328125,-6901.962890625,-6243.0283203125,9809.1005859375,-5179.03662109375,-5302.31103515625,5756.0888671875,-2336.514892578125,1252.396728515625,5937.71240234375,3022.7080078125,-1425.319580078125,-2317.81982421875,-6.0,-17.100000381469727,-9142.84765625,-2682.489501953125,-17.100000381469727,-520.8494873046875,-37.410736083984375,700.1585693359375,0.0
0,0.896728515625,259.79998779296875,-186.35116577148438,8686.9736328125,-9819.900390625,-9823.80078125,-5370.1083984375,9630.9814453125,1855.8563232421875,5891.45654296875,-9383.3447265625,-9814.5,-6572.90625,4932.896484375,7328.267578125,8177.30615234375,5490.36376953125,-5.699999809265137,-17.700000762939453,-9816.6005859375,-9825.6005859375,-17.700000762939453,-9837.0,9806.7001953125,8655.6611328125,0.0
0,0.89990234375,2879.10009765625,3432.942626953125,8760.1630859375,-830.1124267578125,-2297.056884765625,2665.255859375,9809.1005859375,5330.7978515625,2135.65283203125,-9818.1005859375,-4039.25634765625,-5111.02685546875,-4996.78515625,-686.7064819335938,4221.4150390625,3950.35791015625,-5.400000095367432,-17.399999618530273,717.7909545898438,-5157.48046875,-17.100000381469727,-8288.861328125,4657.1875,1970.750244140625,0.0
0,0.9033203125,374.3999938964844,851.6338500976562,-5109.42041015625,9819.599609375,9823.5,6730.48388671875,9030.4677734375,-71.54026794433594,-11193.767578125,3363.586181640625,9188.2138671875,4055.808349609375,-9336.08984375,-9013.84765625,-7065.76123046875,-4624.22314453125,-5.400000095367432,-17.399999618530273,9816.2998046875,9610.005859375,-17.399999618530273,7131.28466796875,-8802.896484375,-8460.6240234375,0.0
0,0.90673828125,-3713.699951171875,-4216.15771484375,-9828.900390625,3930.59716796875,7152.5947265625,990.50927734375,9809.1005859375,-5804.93896484375,-14139.49609375,9817.7998046875,6180.78662109375,4547.10302734375,-3010.848388671875,-6033.4208984375,-9272.369140625,-6749.767578125,-5.699999809265137,-17.399999618530273,3582.36376953125,9825.2998046875,-17.399999618530273,9836.69921875,-9606.7783203125,-7874.0126953125,0.0
0,0.909912109375,-1462.800048828125,-2098.776123046875,-2249.056640625,-4158.353515625,-5383.18310546875,-6124.2392578125,-2681.060302734375,-3448.00146484375,-1841.0802001953125,5817.8115234375,-684.0917358398438,2192.369384765625,7866.958984375,5397.39306640625,1448.9949951171875,-598.7576293945312,-5.699999809265137,-17.399999618530273,-9182.6904296875,-2451.002685546875,-17.399999618530273,-477.32025146484375,1421.0093994140625,2844.37548828125,0.0
0,0.913330078125,3654.300048828125,3701.81640625,9828.599609375,-7123.98291015625,-9823.80078125,-5067.43603515625,-9809.400390625,4796.19140625,11341.0546875,-9355.1806640625,-8782.671875,-4769.49169921875,8439.5537109375,9825.8994140625,9819.900390625,8323.421875,-5.699999809265137,-17.700000762939453,-9816.6005859375,-9825.6005859375,-17.700000762939453,-9837.0,9806.7001953125,9816.900390625,0.0
0,0.916748046875,5682.0,6561.3017578125,9615.9326171875,2733.677001953125,182.87713623046875,3020.42333984375,-9506.4482421875,7731.73681640625,7069.748046875,-9818.1005859375,-1830.0352783203125,-3778.1982421875,-1497.9256591796875,2881.768310546875,7556.65087890625,6360.40966796875,-5.400000095367432,-17.399999618530273,1956.25,-4885.8134765625,-17.399999618530273,-8254.6376953125,6288.89404296875,4935.26416015625,0.0
0,0.919921875,3042.0,3670.0078125,-2366.038818359375,9819.599609375,9823.5,7292.93212890625,-9808.80078125,2237.204833984375,-7069.748046875,3442.98681640625,9814.2001953125,5931.8525390625,-6168.97021484375,-6378.27392578125,-4253.1826171875,-2350.566650390625,-5.400000095367432,-17.399999618530273,9816.2998046875,9702.66015625,-17.100000381469727,7168.20947265625,-8264.181640625,-6349.0634765625,0.0
0,0.92333984375,-1102.199951171875,-1378.5784912109375,-9828.900390625,6459.892578125,8519.9765625,1642.9495849609375,-9809.400390625,-3486.31591796875,-9794.5458984375,9817.7998046875,8144.705078125,6774.88671875,84.88445281982422,-3039.5009765625,-6068.69677734375,-4456.88330078125,-5.699999809265137,-17.399999618530273,4149.466796875,9825.2998046875,-17.100000381469727,9836.69921875,-8671.2099609375,-5100.6416015625,0.0
0,0.9267578125,-1079.4000244140625,-1844.3065185546875,-1639.2498779296875,-3915.9130859375,-4409.4375,-5637.083984375,-9597.154296875,-2912.19775390625,-1178.291259765625,5841.4814453125,170.1243896484375,3334.322265625,8899.3701171875,5910.173828125,1810.71923828125,31.845611572265625,-6.0,-17.700000762939453,-9378.615234375,-1977.2340087890625,-17.399999618530273,-455.1053466796875,2202.44482421875,3620.032470703125,0.0
0,0.929931640625,2317.800048828125,2005.750732421875,9292.2822265625,-8696.1015625,-9823.80078125,-4942.04736328125,-9809.400390625,3772.476806640625,9868.1904296875,-9352.1845703125,-9470.357421875,-4840.61962890625,7592.20947265625,9541.921875,9819.900390625,7440.45654296875,-5.699999809265137,-17.399999618530273,-9816.6005859375,-9825.6005859375,-17.100000381469727,-9837.0,9806.7001953125,9816.900390625,0.0
0,0.933349609375,4654.2001953125,5373.275390625,9479.4541015625,1439.061279296875,-442.502685546875,3185.108154296875,-9526.8046875,7025.9130859375,5965.099609375,-9818.1005859375,-2478.7841796875,-3599.927734375,-2569.92919921875,1648.0955810546875,6684.8564453125,5754.7421875,-5.400000095367432,-17.100000381469727,99.4601821899414,-4834.83837890625,-17.700000762939453,-8239.328125,6036.59619140625,4477.779296875,0.0
0,0.9365234375,2036.4000244140625,2497.285888671875,-3528.361328125,9819.599609375,9823.5,7243.13671875,-9809.400390625,1416.13818359375,-7953.46630859375,3445.083984375,9814.2001953125,5631.1328125,-7153.39013671875,-7256.8984375,-5192.10693359375,-3015.4189453125,-6.0,-17.700000762939453,9816.2998046875,9672.974609375,-17.399999618530273,7202.4326171875,-8375.814453125,-6755.916015625,0.0
0,0.93994140625,-2008.5,-2491.88427734375,-9828.900390625,5649.25927734375,8190.19775390625,1542.458740234375,-9520.5185546875,-4300.19873046875,-10751.908203125,9817.7998046875,7646.01318359375,6279.6904296875,-808.052001953125,-3967.00439453125,-7086.7392578125,-5094.095703125,-5.699999809265137,-17.399999618530273,2922.69140625,9825.2998046875,-17.399999618530273,9836.69921875,-8894.1787109375,-5652.5,0.0
0,0.943359375,-1718.699951171875,-2554.301513671875,-2665.9931640625,-4630.9482421875,-5098.37451171875,-5685.6796875,-9809.400390625,-3436.626953125,-1767.43701171875,5884.92724609375,-671.2125854492188,3008.39306640625,8371.7666015625,5356.310546875,1054.6046142578125,-451.84716796875,-5.699999809265137,-17.700000762939453,-9816.6005859375,-2139.155029296875,-17.100000381469727,-347.0328369140625,1886.099609375,3291.9736328125,0.0
0,0.946533203125,1656.9000244140625,1281.351806640625,9000.42578125,-9413.234375,-9823.80078125,-4978.64404296875,-9809.400390625,3164.534423828125,9205.400390625,-9328.2138671875,-9814.5,-5293.4990234375,7131.19384765625,9324.814453125,9714.708984375,6956.46337890625,-5.400000095367432,-17.700000762939453,-9816.6005859375,-9825.6005859375,-17.100000381469727,-9837.0,9806.7001953125,9816.900390625,0.0
